%OpenBCI Raw EXG Data
%Number of channels = 4
%Sample Rate = 200 Hz
%Board = OpenBCI_GUI$BoardGanglionNative
Sample Index, EXG Channel 0, EXG Channel 1, EXG Channel 2, EXG Channel 3, Accel Channel 0, Accel Channel 1, Accel Channel 2, Other, Other, Other, Other, Other, Timestamp, Other, Timestamp (Formatted)
46.0, 147.42311635334045, 155.38162345904857, 230.45263526961207, 110.62250078935176, 0.0, 0.0, 0.0, 0.0, 0.0, 0.0, 0.0, 0.0, 1.7151012877687137E9, 0.0, 2024-05-07 12:01:27.768
46.0, 128.71239687502384, 106.87886093370616, 141.85066541936249, 98.88669472839683, 0.0, 0.0, 0.0, 0.0, 0.0, 0.0, 0.0, 0.0, 1.7151012877687268E9, 0.0, 2024-05-07 12:01:27.768
47.0, -21.32490954734385, 0.44130819477140903, 22.98916502762586, 14.290157730691135, 0.0, 0.0, 0.0, 0.0, 0.0, 0.0, 0.0, 0.0, 1.715101287768997E9, 0.0, 2024-05-07 12:01:27.768
47.0, 18.09363598562777, 45.77263555768877, 100.11338191386312, 50.451250402256846, 0.0, 0.0, 0.0, 0.0, 0.0, 0.0, 0.0, 0.0, 1.715101287769008E9, 0.0, 2024-05-07 12:01:27.769
48.0, 176.87482850439847, 175.51724482048303, 223.13739095628262, 123.03148884233087, 0.0, 0.0, 0.0, 0.0, 0.0, 0.0, 0.0, 0.0, 1.7151012877698019E9, 0.0, 2024-05-07 12:01:27.769
48.0, 2.1055636750534177, 9.619022686034441, 80.10491715092212, 8.227779902517796, 0.0, 0.0, 0.0, 0.0, 0.0, 0.0, 0.0, 0.0, 1.7151012877698143E9, 0.0, 2024-05-07 12:01:27.769
49.0, -61.93648316618055, 9.611542886123061, 19.589595967903733, 18.09363598562777, 0.0, 0.0, 0.0, 0.0, 0.0, 0.0, 0.0, 0.0, 1.7151012877983685E9, 0.0, 2024-05-07 12:01:27.798
49.0, 148.24215444363654, 173.32192354649305, 235.10507081449032, 141.83570581953973, 0.0, 0.0, 0.0, 0.0, 0.0, 0.0, 0.0, 0.0, 1.7151012877983837E9, 0.0, 2024-05-07 12:01:27.798
50.0, -22.817129629664123, 13.609495938755572, 22.14020773768425, -17.136221596971154, 0.0, 0.0, -0.0, 0.0, 0.0, 0.0, 0.0, 0.0, 1.7151012878284347E9, 0.0, 2024-05-07 12:01:27.828
50.0, -52.22396298125386, 8.167941503226757, -13.235505943186581, -53.17763746995479, 0.0, 0.0, -0.0, 0.0, 0.0, 0.0, 0.0, 0.0, 1.7151012878284543E9, 0.0, 2024-05-07 12:01:27.828
51.0, 104.6424007602036, 140.03681394085288, 158.99062691628933, 103.55408987309784, 0.0, 1.0240000486373901, -0.0, 0.0, 0.0, 0.0, 0.0, 0.0, 1.715101287828954E9, 0.0, 2024-05-07 12:01:27.828
51.0, 87.1920275669545, 118.69694479368627, 85.86436308268458, 94.98971897456795, 0.0, 1.0240000486373901, -0.0, 0.0, 0.0, 0.0, 0.0, 0.0, 1.7151012878289654E9, 0.0, 2024-05-07 12:01:27.828
52.0, -57.2503885217011, 13.856329335831106, 65.33979212585837, 16.309703706763685, -0.11200000531971455, 1.0240000486373901, -0.0, 0.0, 0.0, 0.0, 0.0, 0.0, 1.7151012878294911E9, 0.0, 2024-05-07 12:01:27.829
52.0, 101.11193520203233, 101.98333189170808, 135.6162521932274, 52.485755978152156, -0.11200000531971455, 1.0240000486373901, -0.0, 0.0, 0.0, 0.0, 0.0, 0.0, 1.715101287829503E9, 0.0, 2024-05-07 12:01:27.829
53.0, 187.78411667514592, 175.2704114234075, 201.33377421461046, 170.04951108526438, -0.11200000531971455, 1.0240000486373901, -0.0, 0.0, 0.0, 0.0, 0.0, 0.0, 1.7151012878304648E9, 0.0, 2024-05-07 12:01:27.830
53.0, 16.769711401313543, 9.574143886566162, 103.46059237420559, 16.818330100737512, -0.11200000531971455, 1.0240000486373901, -0.0, 0.0, 0.0, 0.0, 0.0, 0.0, 1.7151012878304772E9, 0.0, 2024-05-07 12:01:27.830
54.0, -35.40189298056066, 20.19171986076981, -29.642447048798203, -19.522277768701315, -0.11200000531971455, 1.0240000486373901, -0.0, 0.0, 0.0, 0.0, 0.0, 0.0, 1.7151012878311768E9, 0.0, 2024-05-07 12:01:27.831
54.0, -275.98030738020316, 190.26367034576833, -204.36122322874144, 126.43479780200869, -0.11200000531971455, 1.0240000486373901, -0.0, 0.0, 0.0, 0.0, 0.0, 0.0, 1.7151012878312E9, 0.0, 2024-05-07 12:01:27.831
55.0, -484.60314660845324, 20.838722553104162, -398.420892029535, 4.734713343903422, -0.11200000531971455, 1.0240000486373901, -0.0, 0.0, 0.0, 0.0, 0.0, 0.0, 1.715101287858596E9, 0.0, 2024-05-07 12:01:27.858
55.0, -515.4236621432938, 20.17676026094705, -483.74670951860026, -22.761031130328774, -0.11200000531971455, 1.0240000486373901, -0.0, 0.0, 0.0, 0.0, 0.0, 0.0, 1.715101287858611E9, 0.0, 2024-05-07 12:01:27.858
56.0, -381.55768312932923, 124.51248922478408, -291.2278794995509, 95.24029227159917, -0.11200000531971455, 1.0240000486373901, -0.0, 0.0, 0.0, 0.0, 0.0, 0.0, 1.715101287859059E9, 0.0, 2024-05-07 12:01:27.859
56.0, -428.1755360770039, 96.08550966158509, -371.25425875140354, 36.060115372762084, -0.11200000531971455, 1.0240000486373901, -0.0, 0.0, 0.0, 0.0, 0.0, 0.0, 1.715101287859076E9, 0.0, 2024-05-07 12:01:27.859
57.0, -496.5147279673256, -17.28207769524306, -431.79575923411176, -9.443247388117015, -0.11200000531971455, 1.0240000486373901, -0.0, 0.0, 0.0, 0.0, 0.0, 0.0, 1.7151012878600364E9, 0.0, 2024-05-07 12:01:27.860
57.0, -471.67057256167755, 83.19781441427767, -483.41011852258816, -1.0509118875488639, -0.11200000531971455, 1.0240000486373901, -0.0, 0.0, 0.0, 0.0, 0.0, 0.0, 1.7151012878600569E9, 0.0, 2024-05-07 12:01:27.860
58.0, -320.70203105034307, 165.68504783697426, -289.35792952170596, 171.91572116315365, -0.11200000531971455, 1.0240000486373901, -0.0, 0.0, 0.0, 0.0, 0.0, 0.0, 1.7151012878888788E9, 0.0, 2024-05-07 12:01:27.888
58.0, -503.0819922895171, -14.836183124221861, -403.0995068741031, 13.953566734679043, -0.11200000531971455, 1.0240000486373901, -0.0, 0.0, 0.0, 0.0, 0.0, 0.0, 1.715101287888902E9, 0.0, 2024-05-07 12:01:27.888
59.0, -539.493658258114, 36.15735277161002, -526.9911727062427, -53.701223463751376, -0.11200000531971455, 1.0240000486373901, -0.0, 0.0, 0.0, 0.0, 0.0, 0.0, 1.7151012878890312E9, 0.0, 2024-05-07 12:01:27.889
59.0, -780.1169514572248, 186.92393968533725, -738.4395063510165, 139.83485934324563, -0.11200000531971455, 1.0240000486373901, -0.0, 0.0, 0.0, 0.0, 0.0, 0.0, 1.7151012878890493E9, 0.0, 2024-05-07 12:01:27.889
60.0, -937.5816991915926, 31.561015726067126, -916.94119133614, 50.64572519995272, -0.11200000531971455, 1.0240000486373901, -0.0, 0.0, 0.0, 0.0, 0.0, 0.0, 1.715101287889923E9, 0.0, 2024-05-07 12:01:27.889
60.0, -1040.3728494737297, 0.6283031925559044, -944.3359585115686, -41.88313960377127, -0.11200000531971455, 1.0240000486373901, -0.0, 0.0, 0.0, 0.0, 0.0, 0.0, 1.715101287889942E9, 0.0, 2024-05-07 12:01:27.889
61.0, -832.9093792317435, 147.87190434802324, -804.6432153666392, 104.67605985980481, -0.11200000531971455, 1.0240000486373901, -0.0, 0.0, 0.0, 0.0, 0.0, 0.0, 1.7151012879184272E9, 0.0, 2024-05-07 12:01:27.918
61.0, -909.7044849218801, 75.53849930502474, -874.4933268390596, 81.95242772903293, -0.11200000531971455, 1.0240000486373901, -0.0, 0.0, 0.0, 0.0, 0.0, 0.0, 1.715101287918439E9, 0.0, 2024-05-07 12:01:27.918
62.0, -1030.420975691639, -34.28740279376507, -963.5740038836375, -40.2039245236665, -0.12800000607967377, 1.0240000486373901, -0.0, 0.0, 0.0, 0.0, 0.0, 0.0, 1.7151012879188452E9, 0.0, 2024-05-07 12:01:27.918
62.0, -916.0361355468631, 63.91489024274051, -909.6596061224118, 45.60807995963842, -0.12800000607967377, 1.0240000486373901, -0.0, 0.0, 0.0, 0.0, 0.0, 0.0, 1.7151012879188569E9, 0.0, 2024-05-07 12:01:27.918
63.0, -842.8724727137014, 136.62602518126369, -754.2854624632746, 122.40692554973066, -0.12800000607967377, 1.0240000486373901, -0.0, 0.0, 0.0, 0.0, 0.0, 0.0, 1.7151012879196427E9, 0.0, 2024-05-07 12:01:27.919
63.0, -976.7459315275773, -3.9194151535630226, -958.1810681475326, 7.008572516962886, -0.12800000607967377, 1.0240000486373901, -0.0, 0.0, 0.0, 0.0, 0.0, 0.0, 1.71510128791965E9, 0.0, 2024-05-07 12:01:27.919
64.0, -1000.7074705436826, 14.46219312865287, -877.1037770081311, 12.89143514726311, -0.12800000607967377, 1.0240000486373901, -0.0, 0.0, 0.0, 0.0, 0.0, 0.0, 1.7151012879486277E9, 0.0, 2024-05-07 12:01:27.948
64.0, -776.6575439982116, 189.2800766574219, -726.5989830913022, 141.8469255194068, -0.12800000607967377, 1.0240000486373901, -0.0, 0.0, 0.0, 0.0, 0.0, 0.0, 1.71510128794865E9, 0.0, 2024-05-07 12:01:27.948
65.0, -960.8438769159839, 42.896652491763234, -883.6860009301454, 69.30408607888967, -0.12800000607967377, 1.0240000486373901, -0.0, 0.0, 0.0, 0.0, 0.0, 0.0, 1.7151012879489625E9, 0.0, 2024-05-07 12:01:27.948
65.0, -1005.27388838958, -22.652574031613767, -994.2561431201175, -38.801462040282786, -0.12800000607967377, 1.0240000486373901, -0.0, 0.0, 0.0, 0.0, 0.0, 0.0, 1.7151012879489715E9, 0.0, 2024-05-07 12:01:27.948
66.0, -823.8513415390626, 148.81809903681278, -814.9316801447421, 127.85595978517085, -0.12800000607967377, 1.0240000486373901, -0.0, 0.0, 0.0, 0.0, 0.0, 0.0, 1.7151012879785008E9, 0.0, 2024-05-07 12:01:27.978
66.0, -902.8978670025244, 96.25380515959114, -864.9079632526264, 61.57371287047863, -0.12800000607967377, 1.0240000486373901, -0.0, 0.0, 0.0, 0.0, 0.0, 0.0, 1.7151012879785128E9, 0.0, 2024-05-07 12:01:27.978
67.0, -1011.9533497104421, -1.009772988036275, -918.5044695176184, 1.7614928791299462, -0.12800000607967377, 1.0240000486373901, -0.0, 0.0, 0.0, 0.0, 0.0, 0.0, 1.7151012879788487E9, 0.0, 2024-05-07 12:01:27.978
67.0, -978.3952274080366, 75.82647160161287, -895.1824533939362, 15.030657921917737, -0.12800000607967377, 1.0240000486373901, -0.0, 0.0, 0.0, 0.0, 0.0, 0.0, 1.7151012879788623E9, 0.0, 2024-05-07 12:01:27.978
68.0, -849.9857624294236, 158.47078082244843, -814.3482557516545, 142.46026911213994, -0.12800000607967377, 1.0240000486373901, -0.0, 0.0, 0.0, 0.0, 0.0, 0.0, 1.715101287979483E9, 0.0, 2024-05-07 12:01:27.979
68.0, -978.896374002099, 8.728926496580243, -953.8914028983563, -5.5350519344210625, -0.12800000607967377, 1.0240000486373901, -0.0, 0.0, 0.0, 0.0, 0.0, 0.0, 1.715101287979489E9, 0.0, 2024-05-07 12:01:27.979
69.0, -980.4484324837103, 4.749672943726182, -895.6536807883531, -50.137098805978894, -0.12800000607967377, 1.0240000486373901, -0.0, 0.0, 0.0, 0.0, 0.0, 0.0, 1.7151012879804063E9, 0.0, 2024-05-07 12:01:27.980
69.0, -1218.4276164141484, 179.50023827329278, -743.2639772938564, 151.04333951044828, -0.12800000607967377, 1.0240000486373901, -0.0, 0.0, 0.0, 0.0, 0.0, 0.0, 1.7151012879804132E9, 0.0, 2024-05-07 12:01:27.980
70.0, -986.5631689112633, 40.27124272286892, -872.3802833640948, 32.032243120484054, -0.12800000607967377, 1.0240000486373901, -0.01600000075995922, 0.0, 0.0, 0.0, 0.0, 0.0, 1.7151012880384333E9, 0.0, 2024-05-07 12:01:28.038
70.0, -1024.7363277589902, -9.203893790952861, -935.5771128153428, 30.768156935460865, -0.12800000607967377, 1.0240000486373901, -0.01600000075995922, 0.0, 0.0, 0.0, 0.0, 0.0, 1.7151012880384445E9, 0.0, 2024-05-07 12:01:28.038
71.0, -822.5610760543495, 147.30343955475837, -796.1050237677991, 128.0242552831769, -0.12800000607967377, 1.0240000486373901, -0.01600000075995922, 0.0, 0.0, 0.0, 0.0, 0.0, 1.715101288038869E9, 0.0, 2024-05-07 12:01:28.038
71.0, -890.1410682536662, 109.4593919031322, -867.806385718286, 89.14425534382463, -0.12800000607967377, 1.0240000486373901, -0.01600000075995922, 0.0, 0.0, 0.0, 0.0, 0.0, 1.7151012880388768E9, 0.0, 2024-05-07 12:01:28.038
72.0, -971.8728418853134, 14.90350132342428, -942.7352813305333, 20.16928046103567, -0.12800000607967377, 1.0240000486373901, -0.01600000075995922, 0.0, 0.0, 0.0, 0.0, 0.0, 1.715101288039529E9, 0.0, 2024-05-07 12:01:28.039
72.0, -1037.04059861321, 77.70764127932489, -879.3103179819882, 33.52446320280433, -0.12800000607967377, 1.0240000486373901, -0.01600000075995922, 0.0, 0.0, 0.0, 0.0, 0.0, 1.7151012880395353E9, 0.0, 2024-05-07 12:01:28.039
73.0, -841.189517733641, 149.52868002839386, -821.5774823660031, 127.88587898481637, -0.12800000607967377, 1.0240000486373901, -0.01600000075995922, 0.0, 0.0, 0.0, 0.0, 0.0, 1.7151012880402167E9, 0.0, 2024-05-07 12:01:28.040
73.0, -1001.0029226401821, -8.684047697111964, -904.8388750795275, 4.155028850771487, -0.12800000607967377, 1.0240000486373901, -0.01600000075995922, 0.0, 0.0, 0.0, 0.0, 0.0, 1.7151012880402236E9, 0.0, 2024-05-07 12:01:28.040
74.0, -1033.3717567566782, -34.71375138871372, -1007.8469395590946, 0.9686340885236859, -0.12800000607967377, 1.0240000486373901, -0.01600000075995922, 0.0, 0.0, 0.0, 0.0, 0.0, 1.7151012880412037E9, 0.0, 2024-05-07 12:01:28.041
74.0, -818.1105951070786, 182.4248400386423, -1236.8503635958768, 128.3907654788345, -0.12800000607967377, 1.0240000486373901, -0.01600000075995922, 0.0, 0.0, 0.0, 0.0, 0.0, 1.7151012880412269E9, 0.0, 2024-05-07 12:01:28.041
75.0, -965.3093174630776, 48.23722962848842, -1336.443899415899, 40.28246242273599, -0.12800000607967377, 1.0240000486373901, -0.01600000075995922, 0.0, 0.0, 0.0, 0.0, 0.0, 1.715101288042268E9, 0.0, 2024-05-07 12:01:28.042
75.0, -962.0817838013172, 1.533358981832862, -1438.128039311152, -4.757152743637562, -0.12800000607967377, 1.0240000486373901, -0.01600000075995922, 0.0, 0.0, 0.0, 0.0, 0.0, 1.715101288042294E9, 0.0, 2024-05-07 12:01:28.042
76.0, -826.3159356098622, 162.01620598044246, -1241.4504405413754, 98.78197752963752, -0.12800000607967377, 1.0240000486373901, -0.01600000075995922, 0.0, 0.0, 0.0, 0.0, 0.0, 1.7151012880684452E9, 0.0, 2024-05-07 12:01:28.068
76.0, -894.7635845988989, 92.95147349871695, -1381.068385687191, 51.363785991445184, -0.12800000607967377, 1.0240000486373901, -0.01600000075995922, 0.0, 0.0, 0.0, 0.0, 0.0, 1.7151012880684564E9, 0.0, 2024-05-07 12:01:28.068
77.0, -953.8166048992425, 5.24333973787725, -1339.4619986801408, 23.045263526961207, -0.12800000607967377, 1.0240000486373901, -0.01600000075995922, 0.0, 0.0, 0.0, 0.0, 0.0, 1.7151012880688727E9, 0.0, 2024-05-07 12:01:28.068
77.0, -962.0406449018046, 54.66237775236368, -1391.379289865028, 41.98037700261921, -0.12800000607967377, 1.0240000486373901, -0.01600000075995922, 0.0, 0.0, 0.0, 0.0, 0.0, 1.7151012880688813E9, 0.0, 2024-05-07 12:01:28.068
78.0, -796.9165820581838, 169.69422058947384, -1252.5616833097301, 115.66014602966607, -0.12800000607967377, 1.0240000486373901, -0.01600000075995922, 0.0, 0.0, 0.0, 0.0, 0.0, 1.715101288069754E9, 0.0, 2024-05-07 12:01:28.069
78.0, -1016.6357044549659, 5.269519037567079, -1420.9469389147125, 3.1265563629567623, -0.12800000607967377, 1.0240000486373901, -0.01600000075995922, 0.0, 0.0, 0.0, 0.0, 0.0, 1.7151012880697644E9, 0.0, 2024-05-07 12:01:28.069
79.0, -1042.8524031443521, 53.64138506446034, -1528.1100322450511, -67.63235079869628, -0.12800000607967377, 1.0240000486373901, -0.01600000075995922, 0.0, 0.0, 0.0, 0.0, 0.0, 1.715101288098598E9, 0.0, 2024-05-07 12:01:28.098
79.0, -815.0102180438116, 184.9380528088659, -1718.4728099396452, 126.6143129998818, -0.12800000607967377, 1.0240000486373901, -0.01600000075995922, 0.0, 0.0, 0.0, 0.0, 0.0, 1.7151012880986135E9, 0.0, 2024-05-07 12:01:28.098
80.0, -942.5370666328818, 25.281723700463772, -1908.6729019861668, 40.56669481936842, -0.12800000607967377, 1.0240000486373901, -0.03200000151991844, 0.0, 0.0, 0.0, 0.0, 0.0, 1.7151012880988872E9, 0.0, 2024-05-07 12:01:28.098
80.0, -1010.0460007330403, 8.672827997244895, -1949.665945400484, -95.7863176651299, -0.12800000607967377, 1.0240000486373901, -0.03200000151991844, 0.0, 0.0, 0.0, 0.0, 0.0, 1.7151012880988948E9, 0.0, 2024-05-07 12:01:28.098
81.0, -829.5172899719328, 146.16650996822864, -1827.1617824519053, 113.84629455115646, -0.12800000607967377, 1.0240000486373901, -0.03200000151991844, 0.0, 0.0, 0.0, 0.0, 0.0, 1.715101288099698E9, 0.0, 2024-05-07 12:01:28.099
81.0, -889.4117877623066, 92.45780670456588, -1792.347053764388, 64.27392063848674, -0.12800000607967377, 1.0240000486373901, -0.03200000151991844, 0.0, 0.0, 0.0, 0.0, 0.0, 1.7151012880997045E9, 0.0, 2024-05-07 12:01:28.099
82.0, -974.386054655537, -1.2715659849345684, -1910.8308242606, 31.112227731384337, -0.12800000607967377, 1.0240000486373901, -0.03200000151991844, 0.0, 0.0, 0.0, 0.0, 0.0, 1.715101288128382E9, 0.0, 2024-05-07 12:01:28.128
82.0, -988.7397906854749, 61.341839073225856, -1973.159996922128, 40.2413235232234, -0.12800000607967377, 1.0240000486373901, -0.03200000151991844, 0.0, 0.0, 0.0, 0.0, 0.0, 1.715101288128394E9, 0.0, 2024-05-07 12:01:28.128
83.0, -800.2637925185263, 158.02947262767702, -2189.8479304048233, 146.85465156007558, -0.12800000607967377, 1.0240000486373901, -0.03200000151991844, 0.0, 0.0, 0.0, 0.0, 0.0, 1.715101288128876E9, 0.0, 2024-05-07 12:01:28.128
83.0, -993.4333651298657, 5.3330973368138075, -2414.421442944091, 18.91267407592386, -0.12800000607967377, 1.0240000486373901, -0.03200000151991844, 0.0, 0.0, 0.0, 0.0, 0.0, 1.7151012881288865E9, 0.0, 2024-05-07 12:01:28.128
84.0, -1014.7956736767665, 41.0566217135638, -2390.310307929758, 11.586210062727332, -0.12800000607967377, 1.0240000486373901, -0.03200000151991844, 0.0, 0.0, 0.0, 0.0, 0.0, 1.7151012881298656E9, 0.0, 2024-05-07 12:01:28.129
84.0, -814.258498152718, 179.9004075685516, -2238.358172730077, 137.05237377621233, -0.12800000607967377, 1.0240000486373901, -0.03200000151991844, 0.0, 0.0, 0.0, 0.0, 0.0, 1.7151012881298802E9, 0.0, 2024-05-07 12:01:28.129
85.0, -961.1729881120846, 38.835121139883995, -2361.894548066426, 34.2387840943411, -0.12800000607967377, 1.0240000486373901, -0.03200000151991844, 0.0, 0.0, 0.0, 0.0, 0.0, 1.7151012881585472E9, 0.0, 2024-05-07 12:01:28.158
85.0, -1041.64815535862, -19.836429364979267, -2496.7516005686484, -85.03410529252142, -0.12800000607967377, 1.0240000486373901, -0.03200000151991844, 0.0, 0.0, 0.0, 0.0, 0.0, 1.7151012881585684E9, 0.0, 2024-05-07 12:01:28.158
86.0, -863.0267935749143, 154.16241607349366, -2285.394894472789, 139.2476950502023, -0.12800000607967377, 1.0240000486373901, -0.03200000151991844, 0.0, 0.0, 0.0, 0.0, 0.0, 1.7151012881589172E9, 0.0, 2024-05-07 12:01:28.158
86.0, -887.1528881890699, 88.69546734914184, -2270.5811507483013, 74.13977672159672, -0.12800000607967377, 1.0240000486373901, -0.03200000151991844, 0.0, 0.0, 0.0, 0.0, 0.0, 1.7151012881589258E9, 0.0, 2024-05-07 12:01:28.158
87.0, -948.0048003681004, -16.276044607162476, -2389.898918934632, 17.914120787754655, -0.12800000607967377, 1.0240000486373901, -0.03200000151991844, 0.0, 0.0, 0.0, 0.0, 0.0, 1.7151012881597984E9, 0.0, 2024-05-07 12:01:28.159
87.0, -979.2217452982441, 71.35729115456343, -2324.8022203058936, 51.79013458639383, -0.12800000607967377, 1.0240000486373901, -0.03200000151991844, 0.0, 0.0, 0.0, 0.0, 0.0, 1.7151012881598084E9, 0.0, 2024-05-07 12:01:28.159
88.0, -812.7251391708851, 153.69492857903242, -2217.336195079144, 116.66243921779096, -0.12800000607967377, 1.0240000486373901, -0.03200000151991844, 0.0, 0.0, 0.0, 0.0, 0.0, 1.715101288188372E9, 0.0, 2024-05-07 12:01:28.188
88.0, -977.9053005138412, -5.082524039782584, -2429.156648769509, 12.304270854219794, -0.12800000607967377, 1.0240000486373901, -0.03200000151991844, 0.0, 0.0, 0.0, 0.0, 0.0, 1.7151012881883826E9, 0.0, 2024-05-07 12:01:28.188
89.0, -960.5858238190413, 6.8215775191783905, -2315.848899811972, 48.065194230526686, -0.12800000607967377, 1.0240000486373901, -0.03200000151991844, 0.0, 0.0, 0.0, 0.0, 0.0, 1.7151012881889298E9, 0.0, 2024-05-07 12:01:28.188
89.0, -816.9512261208147, 169.3389300936833, -2252.4538556630723, 129.94282396044582, -0.12800000607967377, 1.0240000486373901, -0.03200000151991844, 0.0, 0.0, 0.0, 0.0, 0.0, 1.7151012881889408E9, 0.0, 2024-05-07 12:01:28.188
90.0, -1032.1114104716107, 6.477506723254919, -2446.6892997617833, -15.804817212745547, -0.12800000607967377, 1.0240000486373901, -0.03200000151991844, 0.0, 0.0, 0.0, 0.0, 0.0, 1.7151012881896718E9, 0.0, 2024-05-07 12:01:28.189
90.0, -1016.6095251552761, -2.2439399734139442, -2478.882358580362, -58.05820691213012, -0.12800000607967377, 1.0240000486373901, -0.03200000151991844, 0.0, 0.0, 0.0, 0.0, 0.0, 1.7151012881896794E9, 0.0, 2024-05-07 12:01:28.189
91.0, -872.2082479661331, 138.3201998611912, -2344.937841667328, 74.9999537114054, -0.12800000607967377, 1.0240000486373901, -0.03200000151991844, 0.0, 0.0, 0.0, 0.0, 0.0, 1.7151012882184634E9, 0.0, 2024-05-07 12:01:28.218
91.0, -954.474827291444, 71.66396295093, -2308.335440800991, 43.618453183211386, -0.12800000607967377, 1.0240000486373901, -0.03200000151991844, 0.0, 0.0, 0.0, 0.0, 0.0, 1.7151012882184772E9, 0.0, 2024-05-07 12:01:28.218
92.0, -995.7857622019947, -13.209326643496752, -2470.486283179838, -40.36474022176117, -0.12800000607967377, 1.0240000486373901, -0.03200000151991844, 0.0, 0.0, 0.0, 0.0, 0.0, 1.7151012882188473E9, 0.0, 2024-05-07 12:01:28.218
92.0, -953.6071705017239, 91.62754891440272, -2342.8584572919644, 8.06696420442313, -0.12800000607967377, 1.0240000486373901, -0.03200000151991844, 0.0, 0.0, 0.0, 0.0, 0.0, 1.7151012882188528E9, 0.0, 2024-05-07 12:01:28.218
93.0, -827.7109182933345, 160.8568369941786, -2280.424567431677, 122.31342805083841, -0.12800000607967377, 1.0240000486373901, -0.03200000151991844, 0.0, 0.0, 0.0, 0.0, 0.0, 1.715101288219777E9, 0.0, 2024-05-07 12:01:28.219
93.0, -981.3385286731645, 6.926294717937708, -2378.840034765657, 32.92607920989394, -0.12800000607967377, 1.0240000486373901, -0.03200000151991844, 0.0, 0.0, 0.0, 0.0, 0.0, 1.715101288219787E9, 0.0, 2024-05-07 12:01:28.219
94.0, -992.1767587447539, 0.4749672943726182, -2445.23447867902, 27.933312769047916, -0.12800000607967377, 1.0240000486373901, -0.03200000151991844, 0.0, 0.0, 0.0, 0.0, 0.0, 1.7151012882485092E9, 0.0, 2024-05-07 12:01:28.248
94.0, -771.3506259610876, 200.6119735231623, -2236.1815509558655, 131.45000364258885, -0.12800000607967377, 1.0240000486373901, -0.03200000151991844, 0.0, 0.0, 0.0, 0.0, 0.0, 1.7151012882485268E9, 0.0, 2024-05-07 12:01:28.248
95.0, -964.7445925697684, 42.66103879455477, -2337.592678154353, 23.37811462301761, -0.12800000607967377, 1.0240000486373901, -0.03200000151991844, 0.0, 0.0, 0.0, 0.0, 0.0, 1.7151012882490432E9, 0.0, 2024-05-07 12:01:28.249
95.0, -1079.084553915076, -15.576683315448463, -2497.4173027607612, -81.98608682863414, -0.12800000607967377, 1.0240000486373901, -0.03200000151991844, 0.0, 0.0, 0.0, 0.0, 0.0, 1.715101288249056E9, 0.0, 2024-05-07 12:01:28.249
96.0, -888.1215222775936, 142.59490551054478, -2261.6540095540695, 127.42213139031082, -0.12800000607967377, 1.0240000486373901, -0.03200000151991844, 0.0, 0.0, 0.0, 0.0, 0.0, 1.7151012882498195E9, 0.0, 2024-05-07 12:01:28.249
96.0, -919.3010682081804, 67.8455250961706, -2325.628738196101, 81.19322803802788, -0.12800000607967377, 1.0240000486373901, -0.03200000151991844, 0.0, 0.0, 0.0, 0.0, 0.0, 1.715101288249828E9, 0.0, 2024-05-07 12:01:28.249
97.0, -1036.2402600226924, -35.32709498144686, -2507.9675605357625, -9.375929188914597, -0.12800000607967377, 1.0240000486373901, -0.03200000151991844, 0.0, 0.0, 0.0, 0.0, 0.0, 1.7151012882785013E9, 0.0, 2024-05-07 12:01:28.278
97.0, -961.8648696038872, 79.38311645947397, -2360.5743633820675, 75.13833000976592, -0.12800000607967377, 1.0240000486373901, -0.03200000151991844, 0.0, 0.0, 0.0, 0.0, 0.0, 1.715101288278519E9, 0.0, 2024-05-07 12:01:28.278
98.0, -830.3737270617858, 164.64535564929247, -2318.98293597484, 132.7290494274348, -0.12800000607967377, 1.0240000486373901, -0.03200000151991844, 0.0, 0.0, 0.0, 0.0, 0.0, 1.7151012882788568E9, 0.0, 2024-05-07 12:01:28.278
98.0, -983.3805140489712, 6.223193526268005, -2383.398972811643, -4.401862247847021, -0.12800000607967377, 1.0240000486373901, -0.03200000151991844, 0.0, 0.0, 0.0, 0.0, 0.0, 1.7151012882788653E9, 0.0, 2024-05-07 12:01:28.278
99.0, -1041.86506955605, 24.97131200414151, -2443.772177796345, 63.769034144468606, -0.12800000607967377, 1.0240000486373901, -0.03200000151991844, 0.0, 0.0, 0.0, 0.0, 0.0, 1.7151012882796564E9, 0.0, 2024-05-07 12:01:28.279
99.0, -1250.0970892389305, 186.07124249543995, -2236.3498464538716, 125.88877240847796, -0.12800000607967377, 1.0240000486373901, -0.03200000151991844, 0.0, 0.0, 0.0, 0.0, 0.0, 1.7151012882796628E9, 0.0, 2024-05-07 12:01:28.279
100.0, -1407.9021678692661, 40.70881101768464, -2335.397356880363, 34.66513268928975, -0.12800000607967377, 1.0240000486373901, -0.01600000075995922, 0.0, 0.0, 0.0, 0.0, 0.0, 1.715101288308881E9, 0.0, 2024-05-07 12:01:28.308
100.0, -1485.7968041463755, 33.79747589956969, -2371.883820848074, -52.089326582849026, -0.12800000607967377, 1.0240000486373901, -0.01600000075995922, 0.0, 0.0, 0.0, 0.0, 0.0, 1.7151012883089092E9, 0.0, 2024-05-07 12:01:28.308
0.0, 136.73635222995654, -129.44354731636122, 222.0098111196421, 1.7035244298167527, -0.12800000607967377, 1.0240000486373901, -0.01600000075995922, 0.0, 0.0, 0.0, 0.0, 0.0, 1.7151012883089926E9, 0.0, 2024-05-07 12:01:28.308
1.0, 34.02747974684462, -201.3693032641895, 59.79913034150377, -56.47435928089544, -0.12800000607967377, 1.0400000493973494, -0.01600000075995922, 0.0, 0.0, 0.0, 0.0, 0.0, 1.7151012883097708E9, 0.0, 2024-05-07 12:01:28.309
1.0, -11.767595210578293, -277.98863365640864, 38.608857192564756, -143.51305094966665, -0.12800000607967377, 1.0400000493973494, -0.01600000075995922, 0.0, 0.0, 0.0, 0.0, 0.0, 1.7151012883097887E9, 0.0, 2024-05-07 12:01:28.309
2.0, -39.68594837980345, -205.90580191044137, 46.35792990075424, -134.58964965539053, -0.12800000607967377, 1.0400000493973494, -0.01600000075995922, 0.0, 0.0, 0.0, 0.0, 0.0, 1.715101288310552E9, 0.0, 2024-05-07 12:01:28.310
2.0, 113.29091940773651, -126.7470794483088, 98.37245848448947, -62.11412841407582, -0.12800000607967377, 1.0400000493973494, -0.01600000075995922, 0.0, 0.0, 0.0, 0.0, 0.0, 1.7151012883105717E9, 0.0, 2024-05-07 12:01:28.310
3.0, -30.310019190888852, -294.02532466640696, 40.02627927577123, -122.69302789634094, -0.12800000607967377, 1.0400000493973494, -0.01600000075995922, 0.0, 0.0, 0.0, 0.0, 0.0, 1.7151012883385108E9, 0.0, 2024-05-07 12:01:28.338
3.0, -36.75760671449825, -275.61753708450124, -33.410396254155785, -110.11948424531147, -0.12800000607967377, 1.0400000493973494, -0.01600000075995922, 0.0, 0.0, 0.0, 0.0, 0.0, 1.7151012883385243E9, 0.0, 2024-05-07 12:01:28.338
4.0, 205.13912241952494, -80.06190830143169, -237.6706421840936, 35.377583630848676, -0.12800000607967377, 1.0400000493973494, -0.01600000075995922, 0.0, 0.0, 0.0, 0.0, 0.0, 1.7151012883390713E9, 0.0, 2024-05-07 12:01:28.339
4.0, -15.541154265869409, -233.95879147807136, -470.42705582641065, -103.56717952294275, -0.12800000607967377, 1.0400000493973494, -0.01600000075995922, 0.0, 0.0, 0.0, 0.0, 0.0, 1.715101288339082E9, 0.0, 2024-05-07 12:01:28.339
5.0, -26.136290840338916, -302.84400876192376, -444.15425863768905, -90.41021147882566, -0.12800000607967377, 1.0400000493973494, -0.01600000075995922, 0.0, 0.0, 0.0, 0.0, 0.0, 1.715101288368884E9, 0.0, 2024-05-07 12:01:28.368
5.0, 93.88831843761727, -124.21890707826242, -307.42351625766605, -2.137352824676782, -0.12800000607967377, 1.0400000493973494, -0.01600000075995922, 0.0, 0.0, 0.0, 0.0, 0.0, 1.7151012883688939E9, 0.0, 2024-05-07 12:01:28.368
6.0, 70.52516341442242, -193.58283155644313, -389.7312344824895, -24.673989957664162, -0.12800000607967377, 1.0400000493973494, -0.01600000075995922, 0.0, 0.0, 0.0, 0.0, 0.0, 1.7151012883690045E9, 0.0, 2024-05-07 12:01:28.369
6.0, -54.712866401765496, -318.67126537440345, -452.31098044104874, -126.63114254968241, -0.12800000607967377, 1.0400000493973494, -0.01600000075995922, 0.0, 0.0, 0.0, 0.0, 0.0, 1.7151012883690166E9, 0.0, 2024-05-07 12:01:28.369
7.0, -7.197437464725226, -214.42529400950298, -436.7716961251572, -72.48861089115962, -0.12800000607967377, 1.0400000493973494, -0.01600000075995922, 0.0, 0.0, 0.0, 0.0, 0.0, 1.7151012883695447E9, 0.0, 2024-05-07 12:01:28.369
7.0, 112.39334341837093, -136.54561733221635, -328.9802996022627, -5.465863785240799, -0.12800000607967377, 1.0400000493973494, -0.01600000075995922, 0.0, 0.0, 0.0, 0.0, 0.0, 1.7151012883695548E9, 0.0, 2024-05-07 12:01:28.369
8.0, -97.11211219942197, -307.58620190573856, -538.1977829234675, -175.67619056859985, -0.12800000607967377, 1.0400000493973494, -0.01600000075995922, 0.0, 0.0, 0.0, 0.0, 0.0, 1.7151012883704617E9, 0.0, 2024-05-07 12:01:28.370
8.0, -68.95814533298835, -292.39846818568185, -589.4942507157102, -177.09361265180632, -0.12800000607967377, 1.0400000493973494, -0.01600000075995922, 0.0, 0.0, 0.0, 0.0, 0.0, 1.715101288370471E9, 0.0, 2024-05-07 12:01:28.370
9.0, 133.25076547125354, -103.23058852693066, -830.70844810782, -17.788834139239043, -0.12800000607967377, 1.0400000493973494, -0.01600000075995922, 0.0, 0.0, 0.0, 0.0, 0.0, 1.7151012883985708E9, 0.0, 2024-05-07 12:01:28.398
9.0, -59.170827148947865, -260.05207346891984, -986.6211373605765, -95.38801831984892, -0.12800000607967377, 1.0400000493973494, -0.01600000075995922, 0.0, 0.0, 0.0, 0.0, 0.0, 1.7151012883985844E9, 0.0, 2024-05-07 12:01:28.398
10.0, -48.83748357137665, -341.82872590003535, -1074.6060237181373, -135.92479393957183, -0.12800000607967377, 1.0400000493973494, -0.01600000075995922, 0.0, 0.0, 0.0, 0.0, 0.0, 1.7151012883991714E9, 0.0, 2024-05-07 12:01:28.399
10.0, 111.63414372736588, -132.2709116828628, -849.3967281864025, 12.141585206147283, -0.12800000607967377, 1.0400000493973494, -0.01600000075995922, 0.0, 0.0, 0.0, 0.0, 0.0, 1.7151012883991818E9, 0.0, 2024-05-07 12:01:28.399
11.0, 48.37747587682679, -181.30474000191316, -799.0090560833924, -54.6754674022086, -0.12800000607967377, 1.0240000486373901, -0.01600000075995922, 0.0, 0.0, 0.0, 0.0, 0.0, 1.7151012884284933E9, 0.0, 2024-05-07 12:01:28.428
11.0, -43.500646334607154, -287.1588683477603, -996.2289403467439, -110.740307637956, -0.12800000607967377, 1.0240000486373901, -0.01600000075995922, 0.0, 0.0, 0.0, 0.0, 0.0, 1.7151012884285088E9, 0.0, 2024-05-07 12:01:28.428
12.0, 67.87731424579397, -187.44939562911168, -895.3189597423188, -33.372997254598886, -0.144000006839633, 1.0240000486373901, -0.01600000075995922, 0.0, 0.0, 0.0, 0.0, 0.0, 1.7151012884289064E9, 0.0, 2024-05-07 12:01:28.428
12.0, 138.33328951103613, -146.72562501160428, -805.7745351032354, -10.088380130473524, -0.144000006839633, 1.0240000486373901, -0.01600000075995922, 0.0, 0.0, 0.0, 0.0, 0.0, 1.7151012884289172E9, 0.0, 2024-05-07 12:01:28.428
13.0, -52.89901492325589, -305.06924923555925, -1031.6345732272603, -181.60019209841266, -0.144000006839633, 1.0240000486373901, -0.01600000075995922, 0.0, 0.0, 0.0, 0.0, 0.0, 1.715101288429496E9, 0.0, 2024-05-07 12:01:28.429
13.0, -75.01304336125031, -328.035974863451, -871.3536808262579, -209.64570186613128, -0.144000006839633, 1.0240000486373901, -0.01600000075995922, 0.0, 0.0, 0.0, 0.0, 0.0, 1.715101288429504E9, 0.0, 2024-05-07 12:01:28.429
14.0, 133.88654846372083, -100.89689095458016, -861.0988751477562, -17.422323943581432, -0.144000006839633, 1.0240000486373901, -0.01600000075995922, 0.0, 0.0, 0.0, 0.0, 0.0, 1.7151012884304037E9, 0.0, 2024-05-07 12:01:28.430
14.0, -90.82534037390724, -302.2044858695008, -917.6573821776547, -150.4580451673828, -0.144000006839633, 1.0240000486373901, -0.01600000075995922, 0.0, 0.0, 0.0, 0.0, 0.0, 1.7151012884304101E9, 0.0, 2024-05-07 12:01:28.430
15.0, -66.98721805633977, -280.75615962361917, -1074.5574050187133, -144.9753518323414, -0.144000006839633, 1.0240000486373901, -0.01600000075995922, 0.0, 0.0, 0.0, 0.0, 0.0, 1.7151012884585795E9, 0.0, 2024-05-07 12:01:28.458
15.0, 43.3360907365568, -146.29553651669994, -1295.2171122543514, -45.490273111034185, -0.144000006839633, 1.0240000486373901, -0.01600000075995922, 0.0, 0.0, 0.0, 0.0, 0.0, 1.7151012884586017E9, 0.0, 2024-05-07 12:01:28.458
16.0, 48.43357437616214, -194.56268534483388, -1397.9970428366214, -70.73833771189675, -0.144000006839633, 1.0240000486373901, -0.01600000075995922, 0.0, 0.0, 0.0, 0.0, 0.0, 1.7151012884594524E9, 0.0, 2024-05-07 12:01:28.459
16.0, -29.63309729890898, -323.0170291229151, -1430.769786148332, -140.39771428657696, -0.144000006839633, 1.0240000486373901, -0.01600000075995922, 0.0, 0.0, 0.0, 0.0, 0.0, 1.7151012884594665E9, 0.0, 2024-05-07 12:01:28.459
17.0, 22.78908037999645, -222.66055371193215, -1414.44138294179, -112.7374142142944, -0.144000006839633, 1.0240000486373901, -0.01600000075995922, 0.0, 0.0, 0.0, 0.0, 0.0, 1.7151012884883544E9, 0.0, 2024-05-07 12:01:28.488
17.0, 142.5294572613202, -124.23760657804087, -1350.2235608026385, 15.428957267198712, -0.144000006839633, 1.0240000486373901, -0.01600000075995922, 0.0, 0.0, 0.0, 0.0, 0.0, 1.7151012884883668E9, 0.0, 2024-05-07 12:01:28.488
18.0, -59.9001076403074, -295.77559784566984, -1475.9103786135092, -134.1184222609736, -0.144000006839633, 1.0240000486373901, -0.01600000075995922, 0.0, 0.0, 0.0, 0.0, 0.0, 1.7151012884888563E9, 0.0, 2024-05-07 12:01:28.488
18.0, -41.439961459022015, -292.62660208297893, -1512.927908374928, -117.85733725363389, -0.144000006839633, 1.0240000486373901, -0.01600000075995922, 0.0, 0.0, 0.0, 0.0, 0.0, 1.7151012884888651E9, 0.0, 2024-05-07 12:01:28.488
19.0, 154.85990741522983, -96.83161970274523, -1725.5991893052123, -6.23254327615723, -0.144000006839633, 1.0240000486373901, -0.01600000075995922, 0.0, 0.0, 0.0, 0.0, 0.0, 1.715101288489568E9, 0.0, 2024-05-07 12:01:28.489
19.0, -61.624201519880444, -260.71777566103265, -1505.2237144662067, -111.94455542368814, -0.144000006839633, 1.0240000486373901, -0.01600000075995922, 0.0, 0.0, 0.0, 0.0, 0.0, 1.7151012884895768E9, 0.0, 2024-05-07 12:01:28.489
20.0, -70.7532973117195, -322.9123119241558, -1471.5982739645988, -220.4166137385182, -0.144000006839633, 1.0240000486373901, -0.0, 0.0, 0.0, 0.0, 0.0, 0.0, 1.715101288490496E9, 0.0, 2024-05-07 12:01:28.490
20.0, 72.48861089115962, -159.66193895833567, -1372.072056343779, -40.684501667972654, -0.144000006839633, 1.0240000486373901, -0.0, 0.0, 0.0, 0.0, 0.0, 0.0, 1.715101288490507E9, 0.0, 2024-05-07 12:01:28.490
21.0, 17.88233163813129, -209.79155796440318, -1342.1154576987028, -76.28834924614057, -0.144000006839633, 1.0240000486373901, -0.0, 0.0, 0.0, 0.0, 0.0, 0.0, 1.7151012885193567E9, 0.0, 2024-05-07 12:01:28.519
21.0, -94.55402062973008, -314.8042088202201, -1521.9896859675646, -129.3425700175576, -0.144000006839633, 1.0240000486373901, -0.0, 0.0, 0.0, 0.0, 0.0, 0.0, 1.7151012885193703E9, 0.0, 2024-05-07 12:01:28.519
22.0, -7.03662176663056, -223.94707929668948, -1458.70309891738, -86.47957662539557, -0.12800000607967377, 1.0240000486373901, -0.0, 0.0, 0.0, 0.0, 0.0, 0.0, 1.7151012885195844E9, 0.0, 2024-05-07 12:01:28.519
22.0, 152.24571734620258, -109.24060775572434, -1273.3274778136984, -11.767595210578293, -0.12800000607967377, 1.0240000486373901, -0.0, 0.0, 0.0, 0.0, 0.0, 0.0, 1.7151012885195937E9, 0.0, 2024-05-07 12:01:28.519
23.0, -21.382877996657044, -279.1554824425839, -1432.4976199278608, -126.31699095340446, -0.12800000607967377, 1.0240000486373901, -0.0, 0.0, 0.0, 0.0, 0.0, 0.0, 1.7151012885207E9, 0.0, 2024-05-07 12:01:28.520
23.0, -73.52830307884142, -268.50424736877903, -1447.6329950485379, -106.45064238877967, -0.12800000607967377, 1.0240000486373901, -0.0, 0.0, 0.0, 0.0, 0.0, 0.0, 1.715101288520718E9, 0.0, 2024-05-07 12:01:28.520
24.0, 147.78027679910883, -96.5436474061571, -1291.2228991016746, 24.101785264443606, -0.12800000607967377, 1.0240000486373901, -0.0, 0.0, 0.0, 0.0, 0.0, 0.0, 1.7151012885488224E9, 0.0, 2024-05-07 12:01:28.548
24.0, -60.363855234812945, -264.46141551667824, -1420.6982355676591, -115.5909578804858, -0.12800000607967377, 1.0240000486373901, -0.0, 0.0, 0.0, 0.0, 0.0, 0.0, 1.7151012885488348E9, 0.0, 2024-05-07 12:01:28.548
25.0, -86.79746812162921, -312.1974985511042, -1526.1035759188235, -143.10166195454076, -0.12800000607967377, 1.0240000486373901, -0.0, 0.0, 0.0, 0.0, 0.0, 0.0, 1.7151012885491185E9, 0.0, 2024-05-07 12:01:28.549
25.0, 94.07905333535746, -146.0524430195801, -1295.4602057514712, -17.08199304761365, -0.12800000607967377, 1.0240000486373901, -0.0, 0.0, 0.0, 0.0, 0.0, 0.0, 1.7151012885491295E9, 0.0, 2024-05-07 12:01:28.549
26.0, 16.509788354393095, -207.3344436935149, -1380.056742749177, -69.48173132678494, -0.12800000607967377, 1.0240000486373901, -0.0, 0.0, 0.0, 0.0, 0.0, 0.0, 1.715101288578454E9, 0.0, 2024-05-07 12:01:28.578
26.0, -69.6799460244365, -315.52600951166824, -1459.4286395087838, -161.92457843152806, -0.12800000607967377, 1.0240000486373901, -0.0, 0.0, 0.0, 0.0, 0.0, 0.0, 1.7151012885784671E9, 0.0, 2024-05-07 12:01:28.578
27.0, 24.677729857619852, -218.3110500634648, -1391.489616913721, -59.163347349036485, -0.12800000607967377, 1.0240000486373901, -0.0, 0.0, 0.0, 0.0, 0.0, 0.0, 1.715101288578895E9, 0.0, 2024-05-07 12:01:28.578
27.0, 146.44887241488323, -124.89582897024229, -1304.3424681462348, -26.282146938610822, -0.12800000607967377, 1.0240000486373901, -0.0, 0.0, 0.0, 0.0, 0.0, 0.0, 1.7151012885789037E9, 0.0, 2024-05-07 12:01:28.578
28.0, -38.11893029836938, -284.0809306842275, -1408.4650228125975, -131.77350498875603, -0.12800000607967377, 1.0240000486373901, -0.0, 0.0, 0.0, 0.0, 0.0, 0.0, 1.715101288579574E9, 0.0, 2024-05-07 12:01:28.579
28.0, -18.125425135251135, -254.87231203028932, -1451.3242763048038, -178.09216593997553, -0.12800000607967377, 1.0240000486373901, -0.0, 0.0, 0.0, 0.0, 0.0, 0.0, 1.7151012885795825E9, 0.0, 2024-05-07 12:01:28.579
29.0, 209.64570186613128, -98.45099638355896, -1238.2397364294156, 32.647456663195044, -0.12800000607967377, 1.0240000486373901, -0.0, 0.0, 0.0, 0.0, 0.0, 0.0, 1.7151012885806124E9, 0.0, 2024-05-07 12:01:28.580
29.0, 450.0221616681665, -262.98041513422504, -1403.9397438662127, -111.56682552816346, -0.12800000607967377, 1.0240000486373901, -0.0, 0.0, 0.0, 0.0, 0.0, 0.0, 1.7151012885806293E9, 0.0, 2024-05-07 12:01:28.580
30.0, 412.6717808106914, -336.3647320647724, -1512.5987971788272, -144.4966446380131, -0.12800000607967377, 1.0240000486373901, -0.0, 0.0, 0.0, 0.0, 0.0, 0.0, 1.7151012886087177E9, 0.0, 2024-05-07 12:01:28.608
30.0, 572.0289179226384, -147.36140800407156, -1282.2134801084176, -34.91009613638744, -0.12800000607967377, 1.0240000486373901, -0.0, 0.0, 0.0, 0.0, 0.0, 0.0, 1.715101288608745E9, 0.0, 2024-05-07 12:01:28.608
31.0, 487.9260477190837, -210.64799505425617, -1418.2710404964164, -111.50324722891673, -0.12800000607967377, 1.008000047877431, -0.0, 0.0, 0.0, 0.0, 0.0, 0.0, 1.7151012886095428E9, 0.0, 2024-05-07 12:01:28.609
31.0, 401.32118444517255, -309.9759979774244, -1445.871502169408, -141.59074237244204, -0.12800000607967377, 1.008000047877431, -0.0, 0.0, 0.0, 0.0, 0.0, 0.0, 1.715101288609562E9, 0.0, 2024-05-07 12:01:28.609
32.0, 502.7659707432613, -217.1217618775554, -1387.2111713644117, -90.93005757266656, -0.144000006839633, 1.008000047877431, -0.0, 0.0, 0.0, 0.0, 0.0, 0.0, 1.7151012886384628E9, 0.0, 2024-05-07 12:01:28.638
32.0, 593.9297720631585, -111.97821452328935, -1284.5396978808567, -6.9805232672952116, -0.144000006839633, 1.008000047877431, -0.0, 0.0, 0.0, 0.0, 0.0, 0.0, 1.7151012886384752E9, 0.0, 2024-05-07 12:01:28.638
33.0, 441.1436391733587, -281.95666750939563, -1475.8991589136422, -138.92793360399082, -0.144000006839633, 1.008000047877431, -0.0, 0.0, 0.0, 0.0, 0.0, 0.0, 1.715101288698526E9, 0.0, 2024-05-07 12:01:28.698
33.0, 430.93371229432523, -243.6488722632639, -1551.026269223541, -192.82737176539376, -0.144000006839633, 1.008000047877431, -0.0, 0.0, 0.0, 0.0, 0.0, 0.0, 1.71510128869854E9, 0.0, 2024-05-07 12:01:28.698
34.0, 189.218368308153, -84.75548274582252, -1734.3393355016597, 18.619091929402202, -0.144000006839633, 1.008000047877431, -0.0, 0.0, 0.0, 0.0, 0.0, 0.0, 1.7151012886990955E9, 0.0, 2024-05-07 12:01:28.699
34.0, -34.569765240419656, -263.0365136335604, -1955.128069285769, -74.20896487077698, -0.144000006839633, 1.008000047877431, -0.0, 0.0, 0.0, 0.0, 0.0, 0.0, 1.7151012886991029E9, 0.0, 2024-05-07 12:01:28.699
35.0, -59.02123115072027, -298.7076794109307, -1886.4597661993466, -115.31794518372044, -0.144000006839633, 1.008000047877431, -0.0, 0.0, 0.0, 0.0, 0.0, 0.0, 1.7151012886995904E9, 0.0, 2024-05-07 12:01:28.699
35.0, 121.31300481269136, -164.47519020130858, -1858.0664457357489, -24.056906464975327, -0.144000006839633, 1.008000047877431, -0.0, 0.0, 0.0, 0.0, 0.0, 0.0, 1.7151012886996E9, 0.0, 2024-05-07 12:01:28.699
36.0, 35.32522503146902, -217.31997657520697, -1833.2596893296577, -71.93510569771752, -0.144000006839633, 1.008000047877431, -0.0, 0.0, 0.0, 0.0, 0.0, 0.0, 1.7151012887003326E9, 0.0, 2024-05-07 12:01:28.700
36.0, -133.10116947302595, -321.67814493877813, -2025.864537047688, -180.47448221175, -0.144000006839633, 1.008000047877431, -0.0, 0.0, 0.0, 0.0, 0.0, 0.0, 1.7151012887003446E9, 0.0, 2024-05-07 12:01:28.700
37.0, 3.345340510364622, -201.01401276839897, -1845.3208666867577, -58.05259706219658, -0.144000006839633, 1.008000047877431, -0.0, 0.0, 0.0, 0.0, 0.0, 0.0, 1.7151012887016103E9, 0.0, 2024-05-07 12:01:28.701
37.0, 105.62786439852789, -142.54815676109865, -1770.0516401785426, -42.75266634346917, -0.144000006839633, 1.008000047877431, -0.0, 0.0, 0.0, 0.0, 0.0, 0.0, 1.7151012887016191E9, 0.0, 2024-05-07 12:01:28.701
38.0, -78.34155432181433, -310.04331617662683, -2005.3624054905958, -124.94818756962195, -0.144000006839633, 1.008000047877431, -0.0, 0.0, 0.0, 0.0, 0.0, 0.0, 1.7151012887022803E9, 0.0, 2024-05-07 12:01:28.702
38.0, -101.58877244638279, -274.31231199996546, -1860.018673512619, -112.40830301819369, -0.144000006839633, 1.008000047877431, -0.0, 0.0, 0.0, 0.0, 0.0, 0.0, 1.715101288702289E9, 0.0, 2024-05-07 12:01:28.702
39.0, -344.9384527131915, -98.05830688821152, -1832.9717170330696, 15.754328563343734, -0.144000006839633, 1.008000047877431, -0.0, 0.0, 0.0, 0.0, 0.0, 0.0, 1.7151012887030776E9, 0.0, 2024-05-07 12:01:28.703
39.0, -508.3496413771063, -250.00670218793675, -1880.7414591670968, -91.06469397107139, -0.144000006839633, 1.008000047877431, -0.0, 0.0, 0.0, 0.0, 0.0, 0.0, 1.7151012887030835E9, 0.0, 2024-05-07 12:01:28.703
42.0, -501.95815235283226, -196.82532481802627, -1899.6391736431979, -89.27702179225162, -0.12800000607967377, 1.008000047877431, -0.0, 0.0, 0.0, 0.0, 0.0, 0.0, 1.7151012887586424E9, 0.0, 2024-05-07 12:01:28.758
42.0, -385.57994553167373, -92.07446695910767, -1845.9416900794022, 0.7760292408056557, -0.12800000607967377, 1.008000047877431, -0.0, 0.0, 0.0, 0.0, 0.0, 0.0, 1.71510128875866E9, 0.0, 2024-05-07 12:01:28.758
43.0, -540.0901723010466, -255.38093842426315, -1930.9196968725882, -117.13179666223004, -0.12800000607967377, 1.008000047877431, -0.0, 0.0, 0.0, 0.0, 0.0, 0.0, 1.7151012887589912E9, 0.0, 2024-05-07 12:01:28.758
43.0, -529.603492825292, -222.91860680887476, -1996.2632288984023, -156.99165038997307, -0.12800000607967377, 1.008000047877431, -0.0, 0.0, 0.0, 0.0, 0.0, 0.0, 1.7151012887590048E9, 0.0, 2024-05-07 12:01:28.759
44.0, -334.87812183238566, -75.70118495309725, -2193.4288846123964, 42.48713344661519, -0.12800000607967377, 1.008000047877431, -0.0, 0.0, 0.0, 0.0, 0.0, 0.0, 1.7151012887598186E9, 0.0, 2024-05-07 12:01:28.759
44.0, -507.22767139039934, -216.21296618832275, -2407.583035875112, -77.94138502655551, -0.12800000607967377, 1.008000047877431, -0.0, 0.0, 0.0, 0.0, 0.0, 0.0, 1.7151012887598298E9, 0.0, 2024-05-07 12:01:28.759
45.0, -492.3802685663104, -229.52327013062313, -2371.3321856046095, -84.9462176435627, -0.12800000607967377, 1.008000047877431, -0.0, 0.0, 0.0, 0.0, 0.0, 0.0, 1.715101288760602E9, 0.0, 2024-05-07 12:01:28.760
45.0, -330.1882872879505, -103.27172742644325, -2249.4638056484982, 13.716083087492734, -0.12800000607967377, 1.008000047877431, -0.0, 0.0, 0.0, 0.0, 0.0, 0.0, 1.7151012887606084E9, 0.0, 2024-05-07 12:01:28.760
46.0, -450.6168057611212, -150.56276236614212, -2344.6517393207178, -24.079345864709467, -0.12800000607967377, 1.008000047877431, -0.0, 0.0, 0.0, 0.0, 0.0, 0.0, 1.7151012887609212E9, 0.0, 2024-05-07 12:01:28.760
46.0, -530.4861092148349, -258.11854519182816, -2390.671208275482, -96.07615991169587, -0.12800000607967377, 1.008000047877431, -0.0, 0.0, 0.0, 0.0, 0.0, 0.0, 1.7151012887609265E9, 0.0, 2024-05-07 12:01:28.760
47.0, -414.17522059287876, -161.77872233325616, -2271.394578988664, -6.1353058773092926, -0.12800000607967377, 1.008000047877431, -0.0, 0.0, 0.0, 0.0, 0.0, 0.0, 1.715101288788479E9, 0.0, 2024-05-07 12:01:28.788
47.0, -327.7536124167964, -88.14383210567757, -2223.654756054282, 29.434882601257414, -0.12800000607967377, 1.008000047877431, -0.0, 0.0, 0.0, 0.0, 0.0, 0.0, 1.7151012887884912E9, 0.0, 2024-05-07 12:01:28.788
48.0, -515.7396836895496, -243.90692536020651, -2407.6578338742256, -115.10477088624611, -0.12800000607967377, 1.008000047877431, -0.0, 0.0, 0.0, 0.0, 0.0, 0.0, 1.7151012888188436E9, 0.0, 2024-05-07 12:01:28.818
48.0, -555.3564439201728, -222.8625083095394, -2438.108099313453, -73.18423228291795, -0.12800000607967377, 1.008000047877431, -0.0, 0.0, 0.0, 0.0, 0.0, 0.0, 1.7151012888188703E9, 0.0, 2024-05-07 12:01:28.818
49.0, -322.3831160804257, -67.77633694699034, -2208.280027336441, 12.773628298658878, -0.12800000607967377, 1.008000047877431, -0.0, 0.0, 0.0, 0.0, 0.0, 0.0, 1.7151012888189812E9, 0.0, 2024-05-07 12:01:28.818
49.0, -533.6912034768611, -226.4640319668688, -2408.446952764876, -73.70033847680315, -0.12800000607967377, 1.008000047877431, -0.0, 0.0, 0.0, 0.0, 0.0, 0.0, 1.715101288818996E9, 0.0, 2024-05-07 12:01:28.818
50.0, -505.2081254143268, -264.23702151933685, -2423.6010273853317, -120.54258542181924, -0.12800000607967377, 1.008000047877431, -0.03200000151991844, 0.0, 0.0, 0.0, 0.0, 0.0, 1.715101288819635E9, 0.0, 2024-05-07 12:01:28.819
50.0, -327.7199533171952, -101.15868395147845, -2280.8752253763378, 24.2887802622281, -0.12800000607967377, 1.008000047877431, -0.03200000151991844, 0.0, 0.0, 0.0, 0.0, 0.0, 1.715101288819644E9, 0.0, 2024-05-07 12:01:28.819
51.0, -442.97619015164673, -173.56314709363505, -2344.3151483247057, -45.8193843071349, -0.12800000607967377, 1.0240000486373901, -0.03200000151991844, 0.0, 0.0, 0.0, 0.0, 0.0, 1.7151012888202164E9, 0.0, 2024-05-07 12:01:28.820
51.0, -550.6516497759148, -235.1705190637149, -2406.206752691418, -103.39514412498102, -0.12800000607967377, 1.0240000486373901, -0.03200000151991844, 0.0, 0.0, 0.0, 0.0, 0.0, 1.7151012888202236E9, 0.0, 2024-05-07 12:01:28.820
52.0, -429.658406409435, -132.99271237431094, -2306.257926375605, -12.25378220481798, -0.144000006839633, 1.0240000486373901, -0.03200000151991844, 0.0, 0.0, 0.0, 0.0, 0.0, 1.7151012888209083E9, 0.0, 2024-05-07 12:01:28.820
52.0, -329.10371630080044, -76.23225074680522, -2211.657156996429, 24.236421662848443, -0.144000006839633, 1.0240000486373901, -0.03200000151991844, 0.0, 0.0, 0.0, 0.0, 0.0, 1.7151012888209152E9, 0.0, 2024-05-07 12:01:28.820
53.0, -490.7870711851865, -251.54006116976961, -2437.7116699181497, -72.84390138695017, -0.144000006839633, 1.0240000486373901, -0.03200000151991844, 0.0, 0.0, 0.0, 0.0, 0.0, 1.7151012888217716E9, 0.0, 2024-05-07 12:01:28.821
53.0, -522.5014228094369, -225.7197918756865, -2382.316271774471, -150.00925717270002, -0.144000006839633, 1.0240000486373901, -0.03200000151991844, 0.0, 0.0, 0.0, 0.0, 0.0, 1.7151012888217793E9, 0.0, 2024-05-07 12:01:28.821
54.0, -330.77171168103814, -59.0100114508532, -2258.185252345167, 43.2238937378861, -0.144000006839633, 1.0240000486373901, -0.03200000151991844, 0.0, 0.0, 0.0, 0.0, 0.0, 1.715101288848474E9, 0.0, 2024-05-07 12:01:28.848
54.0, -510.4552050521597, -211.9307807390578, -2415.8706541769207, -92.74016915122047, -0.144000006839633, 1.0240000486373901, -0.03200000151991844, 0.0, 0.0, 0.0, 0.0, 0.0, 1.7151012888484864E9, 0.0, 2024-05-07 12:01:28.848
55.0, -603.197244153358, -252.53487455798313, -2502.161365854554, -113.84068470122293, -0.144000006839633, 1.0240000486373901, -0.03200000151991844, 0.0, 0.0, 0.0, 0.0, 0.0, 1.7151012888491209E9, 0.0, 2024-05-07 12:01:28.849
55.0, -377.3970444286242, -90.15589828183874, -2283.6502311434597, 10.948557120282203, -0.144000006839633, 1.0240000486373901, -0.03200000151991844, 0.0, 0.0, 0.0, 0.0, 0.0, 1.7151012888491285E9, 0.0, 2024-05-07 12:01:28.849
56.0, -434.47913745231926, -149.59412827761844, -2303.2136478116736, -52.693320425692946, -0.144000006839633, 1.0240000486373901, -0.03200000151991844, 0.0, 0.0, 0.0, 0.0, 0.0, 1.7151012888788388E9, 0.0, 2024-05-07 12:01:28.878
56.0, -480.5547049064189, -254.94711002940312, -2430.336587205529, -96.11729881120846, -0.144000006839633, 1.0240000486373901, -0.03200000151991844, 0.0, 0.0, 0.0, 0.0, 0.0, 1.7151012888788657E9, 0.0, 2024-05-07 12:01:28.878
57.0, -430.8364748954773, -194.97033444000408, -2340.148899774067, -63.46049239812419, -0.144000006839633, 1.0240000486373901, -0.03200000151991844, 0.0, 0.0, 0.0, 0.0, 0.0, 1.715101288878959E9, 0.0, 2024-05-07 12:01:28.878
57.0, -333.0193915544078, -66.9012003573589, -2264.2588498732075, 20.870511702727526, -0.144000006839633, 1.0240000486373901, -0.03200000151991844, 0.0, 0.0, 0.0, 0.0, 0.0, 1.7151012888789783E9, 0.0, 2024-05-07 12:01:28.878
58.0, -499.84884877782315, -228.35642134444788, -2379.1149174124002, -95.0289879241027, -0.144000006839633, 1.0240000486373901, -0.03200000151991844, 0.0, 0.0, 0.0, 0.0, 0.0, 1.7151012888795316E9, 0.0, 2024-05-07 12:01:28.879
58.0, -501.81229625456035, -181.22620210284367, -2473.7007271917537, -67.04705645563081, -0.144000006839633, 1.0240000486373901, -0.03200000151991844, 0.0, 0.0, 0.0, 0.0, 0.0, 1.715101288879538E9, 0.0, 2024-05-07 12:01:28.879
59.0, -319.61185021325946, -60.09084253804758, -2240.3459295565262, 25.53790684742853, -0.144000006839633, 1.0240000486373901, -0.03200000151991844, 0.0, 0.0, 0.0, 0.0, 0.0, 1.7151012888804762E9, 0.0, 2024-05-07 12:01:28.880
59.0, -506.92473949398845, -223.96951869642362, -2355.0486611975357, -74.80734886368737, -0.144000006839633, 1.0240000486373901, -0.03200000151991844, 0.0, 0.0, 0.0, 0.0, 0.0, 1.7151012888804827E9, 0.0, 2024-05-07 12:01:28.880
60.0, -557.4694873951375, -255.42955712368712, -2394.5868835290894, -114.24459389643744, -0.144000006839633, 1.0240000486373901, -0.03200000151991844, 0.0, 0.0, 0.0, 0.0, 0.0, 1.7151012889086528E9, 0.0, 2024-05-07 12:01:28.908
60.0, -377.2811075299978, -114.88411678886041, -2220.3823435930535, -7.118899565655738, -0.144000006839633, 1.0240000486373901, -0.03200000151991844, 0.0, 0.0, 0.0, 0.0, 0.0, 1.715101288908676E9, 0.0, 2024-05-07 12:01:28.908
61.0, -415.9105341723189, -151.1985453586094, -2370.1653368184343, -7.612566359806806, -0.144000006839633, 1.0240000486373901, -0.03200000151991844, 0.0, 0.0, 0.0, 0.0, 0.0, 1.715101288909283E9, 0.0, 2024-05-07 12:01:28.909
61.0, -546.6873558228835, -250.13011888647452, -2386.546098624356, -117.34497095970437, -0.144000006839633, 1.0240000486373901, -0.03200000151991844, 0.0, 0.0, 0.0, 0.0, 0.0, 1.715101288909294E9, 0.0, 2024-05-07 12:01:28.909
62.0, -526.5554743614048, -192.99192736344412, -2398.41280118376, -94.32588673243299, -0.12800000607967377, 1.0240000486373901, -0.03200000151991844, 0.0, 0.0, 0.0, 0.0, 0.0, 1.7151012889387102E9, 0.0, 2024-05-07 12:01:28.938
62.0, -355.37651348952204, -103.85515181953087, -2266.181158450432, 13.843239685986191, -0.12800000607967377, 1.0240000486373901, -0.03200000151991844, 0.0, 0.0, 0.0, 0.0, 0.0, 1.7151012889387217E9, 0.0, 2024-05-07 12:01:28.938
63.0, -515.275936095044, -259.700522873085, -2378.127583824098, -77.23454393493012, -0.12800000607967377, 1.0240000486373901, -0.03200000151991844, 0.0, 0.0, 0.0, 0.0, 0.0, 1.7151012889687345E9, 0.0, 2024-05-07 12:01:28.968
63.0, -555.726694015786, -277.71936085959896, -2512.823820628226, -119.22988053737208, -0.12800000607967377, 1.0240000486373901, -0.03200000151991844, 0.0, 0.0, 0.0, 0.0, 0.0, 1.7151012889687493E9, 0.0, 2024-05-07 12:01:28.968
64.0, -799.6897178753279, -59.185786748770624, -2678.305043917615, 40.47506727045402, -0.12800000607967377, 1.0240000486373901, -0.03200000151991844, 0.0, 0.0, 0.0, 0.0, 0.0, 1.7151012889689631E9, 0.0, 2024-05-07 12:01:28.968
64.0, -967.9852158813737, -197.35639061173424, -2870.670538038481, -56.380861782003194, -0.12800000607967377, 1.0240000486373901, -0.03200000151991844, 0.0, 0.0, 0.0, 0.0, 0.0, 1.7151012889689722E9, 0.0, 2024-05-07 12:01:28.968
65.0, -977.31626627082, -258.9974216814153, -2857.3003956968896, -150.8320351629518, -0.12800000607967377, 1.0240000486373901, -0.03200000151991844, 0.0, 0.0, 0.0, 0.0, 0.0, 1.7151012889695904E9, 0.0, 2024-05-07 12:01:28.969
65.0, -842.2722187708132, -88.6524584996514, -2794.2008036444895, 17.272727945353836, -0.12800000607967377, 1.0240000486373901, -0.03200000151991844, 0.0, 0.0, 0.0, 0.0, 0.0, 1.7151012889695947E9, 0.0, 2024-05-07 12:01:28.969
66.0, -933.8062701863237, -165.77667538588867, -2788.23940311512, -22.856398579198867, -0.12800000607967377, 1.0240000486373901, -0.03200000151991844, 0.0, 0.0, 0.0, 0.0, 0.0, 1.7151012889703665E9, 0.0, 2024-05-07 12:01:28.970
66.0, -1093.7468316913582, -290.31534391036257, -3015.1054743272252, -118.79979204246774, -0.12800000607967377, 1.0240000486373901, -0.03200000151991844, 0.0, 0.0, 0.0, 0.0, 0.0, 1.7151012889703777E9, 0.0, 2024-05-07 12:01:28.970
67.0, -936.7495714514516, -151.2434241580777, -2824.3069982877932, -38.90430928906426, -0.12800000607967377, 1.0240000486373901, -0.03200000151991844, 0.0, 0.0, 0.0, 0.0, 0.0, 1.7151012889709585E9, 0.0, 2024-05-07 12:01:28.970
67.0, -874.0838077939115, -91.11705257045105, -2807.4550090874545, 27.864124619867653, -0.12800000607967377, 1.0240000486373901, -0.03200000151991844, 0.0, 0.0, 0.0, 0.0, 0.0, 1.7151012889709663E9, 0.0, 2024-05-07 12:01:28.970
68.0, -1025.4225994008593, -235.85866065556183, -2889.0446665207855, -92.14178515831009, -0.12800000607967377, 1.0240000486373901, -0.03200000151991844, 0.0, 0.0, 0.0, 0.0, 0.0, 1.7151012889718275E9, 0.0, 2024-05-07 12:01:28.971
68.0, -990.824784910772, -201.25710626551881, -2985.2498529809527, -97.28040769742802, -0.12800000607967377, 1.0240000486373901, -0.03200000151991844, 0.0, 0.0, 0.0, 0.0, 0.0, 1.7151012889718337E9, 0.0, 2024-05-07 12:01:28.971
69.0, -777.6691869362257, -41.447441258933395, -3163.719748816453, 58.62480175541714, -0.12800000607967377, 1.0240000486373901, -0.03200000151991844, 0.0, 0.0, 0.0, 0.0, 0.0, 1.715101288998448E9, 0.0, 2024-05-07 12:01:28.998
69.0, -943.0475629768334, -189.80553260119632, -3318.600225681439, -42.31883794860914, -0.12800000607967377, 1.0240000486373901, -0.03200000151991844, 0.0, 0.0, 0.0, 0.0, 0.0, 1.715101288998461E9, 0.0, 2024-05-07 12:01:28.998
70.0, -1034.3833996946923, -243.503016164992, -3382.5899139232934, -95.57501331763342, -0.12800000607967377, 1.0240000486373901, -0.04800000227987766, 0.0, 0.0, 0.0, 0.0, 0.0, 1.7151012889991078E9, 0.0, 2024-05-07 12:01:28.999
70.0, -820.300306531135, -83.54749506013468, -3168.5741389589384, 34.4426086419262, -0.12800000607967377, 1.0240000486373901, -0.04800000227987766, 0.0, 0.0, 0.0, 0.0, 0.0, 1.7151012889991162E9, 0.0, 2024-05-07 12:01:28.999
71.0, -876.417505366262, -143.33727565174922, -3313.3456662436947, -7.354513262864202, -0.12800000607967377, 1.0240000486373901, -0.04800000227987766, 0.0, 0.0, 0.0, 0.0, 0.0, 1.715101289028956E9, 0.0, 2024-05-07 12:01:29.028
71.0, -1025.4412989006378, -232.29453599778935, -3364.7169320350513, -111.74260082608089, -0.12800000607967377, 1.0240000486373901, -0.04800000227987766, 0.0, 0.0, 0.0, 0.0, 0.0, 1.7151012890289848E9, 0.0, 2024-05-07 12:01:29.028
72.0, -948.5713952113874, -168.08793355850503, -3316.431083707139, -64.6423007841222, -0.12800000607967377, 1.0240000486373901, -0.04800000227987766, 0.0, 0.0, 0.0, 0.0, 0.0, 1.7151012890290515E9, 0.0, 2024-05-07 12:01:29.029
72.0, -838.5435385149904, -83.97384365508333, -3262.303511648439, 34.7006617388688, -0.12800000607967377, 1.0240000486373901, -0.04800000227987766, 0.0, 0.0, 0.0, 0.0, 0.0, 1.7151012890290632E9, 0.0, 2024-05-07 12:01:29.029
73.0, -1021.132934151683, -240.7953285970725, -3376.299402197823, -106.75357428519055, -0.12800000607967377, 1.0240000486373901, -0.04800000227987766, 0.0, 0.0, 0.0, 0.0, 0.0, 1.7151012890585952E9, 0.0, 2024-05-07 12:01:29.058
73.0, -951.7764894734137, -214.4215541095473, -3377.5447888830677, -115.97242767596617, -0.12800000607967377, 1.0240000486373901, -0.04800000227987766, 0.0, 0.0, 0.0, 0.0, 0.0, 1.715101289058612E9, 0.0, 2024-05-07 12:01:29.058
74.0, -789.9173592911102, -61.8261561174877, -3211.9644582448527, 45.40425541205332, -0.12800000607967377, 1.0240000486373901, -0.04800000227987766, 0.0, 0.0, 0.0, 0.0, 0.0, 1.715101289059004E9, 0.0, 2024-05-07 12:01:29.059
74.0, -1011.6223685643636, -216.29150408739224, -3379.7027111575007, -52.49136582808569, -0.12800000607967377, 1.0240000486373901, -0.04800000227987766, 0.0, 0.0, 0.0, 0.0, 0.0, 1.7151012890590134E9, 0.0, 2024-05-07 12:01:29.059
75.0, -995.8474705512635, -229.95335862552747, -3462.8406871724874, -53.23934581922367, -0.12800000607967377, 1.0240000486373901, -0.04800000227987766, 0.0, 0.0, 0.0, 0.0, 0.0, 1.7151012890597703E9, 0.0, 2024-05-07 12:01:29.059
75.0, -803.2837617327459, -78.04236232535914, -3696.436708354857, 24.673989957664162, -0.12800000607967377, 1.0240000486373901, -0.04800000227987766, 0.0, 0.0, 0.0, 0.0, 0.0, 1.715101289059792E9, 0.0, 2024-05-07 12:01:29.059
76.0, -897.2038693199866, -141.74407827062532, -3782.10285673989, -10.825140421744436, -0.12800000607967377, 1.0240000486373901, -0.04800000227987766, 0.0, 0.0, 0.0, 0.0, 0.0, 1.715101289060424E9, 0.0, 2024-05-07 12:01:29.060
76.0, -957.5172359053977, -222.4249400147237, -3824.9471506322734, -78.5360291195102, -0.12800000607967377, 1.0240000486373901, -0.04800000227987766, 0.0, 0.0, 0.0, 0.0, 0.0, 1.715101289060443E9, 0.0, 2024-05-07 12:01:29.060
77.0, -884.7724418672733, -156.88693319121376, -3758.5863658185117, -76.97275093803182, -0.12800000607967377, 1.0240000486373901, -0.04800000227987766, 0.0, 0.0, 0.0, 0.0, 0.0, 1.7151012890614963E9, 0.0, 2024-05-07 12:01:29.061
77.0, -789.8724804916419, -78.64074631826952, -3719.9718987760134, 34.04243934666738, -0.12800000607967377, 1.0240000486373901, -0.04800000227987766, 0.0, 0.0, 0.0, 0.0, 0.0, 1.7151012890615091E9, 0.0, 2024-05-07 12:01:29.061
78.0, -976.88243787596, -231.30720240948722, -3827.482802802231, -65.2332049771212, -0.12800000607967377, 1.0240000486373901, -0.04800000227987766, 0.0, 0.0, 0.0, 0.0, 0.0, 1.715101289088466E9, 0.0, 2024-05-07 12:01:29.088
78.0, -1008.952079996001, -167.68028446333483, -3900.126619541552, -59.29424384748563, -0.12800000607967377, 1.0240000486373901, -0.04800000227987766, 0.0, 0.0, 0.0, 0.0, 0.0, 1.7151012890884776E9, 0.0, 2024-05-07 12:01:29.088
79.0, -775.784277358558, -49.117976068053395, -3681.5967853306793, 55.74133888958022, -0.12800000607967377, 1.0240000486373901, -0.04800000227987766, 0.0, 0.0, 0.0, 0.0, 0.0, 1.7151012890891504E9, 0.0, 2024-05-07 12:01:29.089
79.0, -917.9116953746416, -185.45976885268465, -3797.657100655604, -54.57449010340497, -0.12800000607967377, 1.0240000486373901, -0.04800000227987766, 0.0, 0.0, 0.0, 0.0, 0.0, 1.7151012890891583E9, 0.0, 2024-05-07 12:01:29.089
80.0, -984.3285786877386, -240.97858369490132, -3854.900009377394, -103.04733342910185, -0.12800000607967377, 1.0240000486373901, -0.04800000227987766, 0.0, 0.0, 0.0, 0.0, 0.0, 1.715101289118654E9, 0.0, 2024-05-07 12:01:29.118
80.0, -800.02630887134, -76.02281634928659, -3688.8559311446734, 9.366579439025372, -0.12800000607967377, 1.0240000486373901, -0.04800000227987766, 0.0, 0.0, 0.0, 0.0, 0.0, 1.715101289118667E9, 0.0, 2024-05-07 12:01:29.118
81.0, -847.9606066034175, -144.84445533389226, -3787.1143226805143, -26.166210039984435, -0.12800000607967377, 1.0240000486373901, -0.04800000227987766, 0.0, 0.0, 0.0, 0.0, 0.0, 1.7151012891189537E9, 0.0, 2024-05-07 12:01:29.118
81.0, -937.6845464403741, -267.9881411748938, -3837.3785780849867, -109.89135034801438, -0.12800000607967377, 1.0240000486373901, -0.04800000227987766, 0.0, 0.0, 0.0, 0.0, 0.0, 1.715101289118962E9, 0.0, 2024-05-07 12:01:29.118
82.0, -899.4066703938879, -159.71429755771533, -3821.274568875786, -25.758560944814235, -0.1600000075995922, 1.0240000486373901, -0.04800000227987766, 0.0, 0.0, 0.0, 0.0, 0.0, 1.7151012891199048E9, 0.0, 2024-05-07 12:01:29.119
82.0, -800.8715262613259, -87.65016531152651, -3700.558078106027, -18.847225826699287, -0.1600000075995922, 1.0240000486373901, -0.04800000227987766, 0.0, 0.0, 0.0, 0.0, 0.0, 1.715101289119918E9, 0.0, 2024-05-07 12:01:29.119
83.0, -959.3123878841288, -246.93998422427103, -3900.668905035127, -116.02852617530152, -0.1600000075995922, 1.0240000486373901, -0.04800000227987766, 0.0, 0.0, 0.0, 0.0, 0.0, 1.7151012891204474E9, 0.0, 2024-05-07 12:01:29.120
83.0, -972.5478938273154, -219.73595194658265, -3802.014084103983, -132.66734107816592, -0.1600000075995922, 1.0240000486373901, -0.04800000227987766, 0.0, 0.0, 0.0, 0.0, 0.0, 1.7151012891204553E9, 0.0, 2024-05-07 12:01:29.120
84.0, -775.410287362989, -66.1980991656892, -3744.4869429855607, 1.5576683315448463, -0.1600000075995922, 1.0240000486373901, -0.04800000227987766, 0.0, 0.0, 0.0, 0.0, 0.0, 1.715101289148481E9, 0.0, 2024-05-07 12:01:29.148
84.0, -963.08594693942, -224.567902689334, -3845.0977315935306, -100.64257775759324, -0.1600000075995922, 1.0240000486373901, -0.04800000227987766, 0.0, 0.0, 0.0, 0.0, 0.0, 1.7151012891484928E9, 0.0, 2024-05-07 12:01:29.148
85.0, -1014.0981823350303, -205.2288800184615, -3927.128697221633, -117.50578665779904, -0.1600000075995922, 1.0240000486373901, -0.04800000227987766, 0.0, 0.0, 0.0, 0.0, 0.0, 1.7151012891491494E9, 0.0, 2024-05-07 12:01:29.149
85.0, -840.0020994977094, -93.360992543865, -3747.475123050157, 1.1126202368177474, -0.1600000075995922, 1.0240000486373901, -0.04800000227987766, 0.0, 0.0, 0.0, 0.0, 0.0, 1.7151012891491597E9, 0.0, 2024-05-07 12:01:29.149
86.0, -906.9949274039827, -151.66229295311496, -3792.4773392169736, -70.39052701601759, -0.1600000075995922, 1.0240000486373901, -0.04800000227987766, 0.0, 0.0, 0.0, 0.0, 0.0, 1.7151012891786397E9, 0.0, 2024-05-07 12:01:29.178
86.0, -1024.786816408392, -252.2843012609519, -3923.0222870702855, -117.40480935899541, -0.1600000075995922, 1.0240000486373901, -0.04800000227987766, 0.0, 0.0, 0.0, 0.0, 0.0, 1.7151012891786573E9, 0.0, 2024-05-07 12:01:29.178
87.0, -1023.7994828200899, -201.65727556077763, -3826.0466812192462, -95.18232382228598, -0.1600000075995922, 1.0240000486373901, -0.04800000227987766, 0.0, 0.0, 0.0, 0.0, 0.0, 1.7151012891790135E9, 0.0, 2024-05-07 12:01:29.179
87.0, -850.3391829752363, -87.15649851737544, -3744.700117283035, 35.97596762375906, -0.1600000075995922, 1.0240000486373901, -0.04800000227987766, 0.0, 0.0, 0.0, 0.0, 0.0, 1.7151012891790245E9, 0.0, 2024-05-07 12:01:29.179
88.0, -1025.9536651945673, -237.22746403934434, -3897.9350381675176, -99.52808757079765, -0.1600000075995922, 1.0240000486373901, -0.04800000227987766, 0.0, 0.0, 0.0, 0.0, 0.0, 1.715101289179622E9, 0.0, 2024-05-07 12:01:29.179
88.0, -1030.7519568377174, -221.37028822721913, -3900.0368619426154, -112.40830301819369, -0.1600000075995922, 1.0240000486373901, -0.04800000227987766, 0.0, 0.0, 0.0, 0.0, 0.0, 1.7151012891796339E9, 0.0, 2024-05-07 12:01:29.179
89.0, -844.7966512409039, -63.07154280273244, -3751.5104751023464, 31.420769477728754, -0.1600000075995922, 1.0240000486373901, -0.04800000227987766, 0.0, 0.0, 0.0, 0.0, 0.0, 1.7151012891805353E9, 0.0, 2024-05-07 12:01:29.180
89.0, -995.552018454764, -216.98712547915056, -3880.1742532779463, -64.21595218917355, -0.1600000075995922, 1.0240000486373901, -0.04800000227987766, 0.0, 0.0, 0.0, 0.0, 0.0, 1.7151012891805427E9, 0.0, 2024-05-07 12:01:29.180
90.0, -1065.6938421237282, -249.22132319724187, -4013.9018559935503, -118.59035764494911, -0.1600000075995922, 1.0240000486373901, -0.03200000151991844, 0.0, 0.0, 0.0, 0.0, 0.0, 1.7151012892388422E9, 0.0, 2024-05-07 12:01:29.238
90.0, -909.1603294783272, -92.47837615432218, -3777.274645897094, 10.537168125156313, -0.1600000075995922, 1.0240000486373901, -0.03200000151991844, 0.0, 0.0, 0.0, 0.0, 0.0, 1.7151012892388668E9, 0.0, 2024-05-07 12:01:29.238
91.0, -963.5983132333495, -166.20302398083732, -3884.351721528452, -41.806471654679626, -0.1600000075995922, 1.0240000486373901, -0.03200000151991844, 0.0, 0.0, 0.0, 0.0, 0.0, 1.715101289238975E9, 0.0, 2024-05-07 12:01:29.238
91.0, -1055.1996828480624, -230.3460481208749, -3897.991136666853, -93.77238153899089, -0.1600000075995922, 1.0240000486373901, -0.03200000151991844, 0.0, 0.0, 0.0, 0.0, 0.0, 1.715101289238989E9, 0.0, 2024-05-07 12:01:29.238
92.0, -990.076804919634, -169.05656764702871, -3866.344103241805, -41.054751763585955, -0.144000006839633, 1.0240000486373901, -0.03200000151991844, 0.0, 0.0, 0.0, 0.0, 0.0, 1.7151012892395687E9, 0.0, 2024-05-07 12:01:29.239
92.0, -895.9659624346532, -90.27183518046513, -3780.894869054202, 19.202516322489828, -0.144000006839633, 1.0240000486373901, -0.03200000151991844, 0.0, 0.0, 0.0, 0.0, 0.0, 1.7151012892395754E9, 0.0, 2024-05-07 12:01:29.239
93.0, -985.4318491746671, -233.25569028640166, -3865.5849035508, -83.3193611628376, -0.144000006839633, 1.0240000486373901, -0.03200000151991844, 0.0, 0.0, 0.0, 0.0, 0.0, 1.7151012892402549E9, 0.0, 2024-05-07 12:01:29.240
93.0, -1004.50159904873, -169.22486314503476, -3938.4007556880824, -75.46931115584448, -0.144000006839633, 1.0240000486373901, -0.03200000151991844, 0.0, 0.0, 0.0, 0.0, 0.0, 1.7151012892402613E9, 0.0, 2024-05-07 12:01:29.240
94.0, -788.8253085040487, -31.54792607622221, -4144.706726893783, 52.281931430567056, -0.144000006839633, 1.0240000486373901, -0.03200000151991844, 0.0, 0.0, 0.0, 0.0, 0.0, 1.7151012892409496E9, 0.0, 2024-05-07 12:01:29.240
94.0, -977.9183901636861, -187.15394353261217, -4366.789466062561, -49.42464786441997, -0.144000006839633, 1.0240000486373901, -0.03200000151991844, 0.0, 0.0, 0.0, 0.0, 0.0, 1.7151012892409575E9, 0.0, 2024-05-07 12:01:29.240
95.0, -1055.6222915430553, -177.29556724941358, -4405.418892704882, -148.019630396273, -0.144000006839633, 1.0240000486373901, -0.03200000151991844, 0.0, 0.0, 0.0, 0.0, 0.0, 1.7151012892417848E9, 0.0, 2024-05-07 12:01:29.241
95.0, -867.1724726757966, -54.88116189977154, -4227.893321608193, 37.23631390882656, -0.144000006839633, 1.0240000486373901, -0.03200000151991844, 0.0, 0.0, 0.0, 0.0, 0.0, 1.7151012892417905E9, 0.0, 2024-05-07 12:01:29.241
96.0, -921.8759893276729, -130.06811060896143, -4265.157684766687, 12.122885706368834, -0.144000006839633, 1.0240000486373901, -0.03200000151991844, 0.0, 0.0, 0.0, 0.0, 0.0, 1.7151012892685027E9, 0.0, 2024-05-07 12:01:29.268
96.0, -1027.0531957815401, -211.4520735447295, -4390.6350681800395, -55.01579829817638, -0.144000006839633, 1.0240000486373901, -0.03200000151991844, 0.0, 0.0, 0.0, 0.0, 0.0, 1.7151012892685149E9, 0.0, 2024-05-07 12:01:29.268
97.0, -952.2477168678306, -143.0530432551168, -4349.406411068514, -5.570580984000117, -0.144000006839633, 1.0240000486373901, -0.03200000151991844, 0.0, 0.0, 0.0, 0.0, 0.0, 1.7151012892691596E9, 0.0, 2024-05-07 12:01:29.269
97.0, -860.3060163571499, -76.26590984640643, -4204.604964584112, 43.28747203713283, -0.144000006839633, 1.0240000486373901, -0.03200000151991844, 0.0, 0.0, 0.0, 0.0, 0.0, 1.7151012892691662E9, 0.0, 2024-05-07 12:01:29.269
98.0, -1011.0913027706556, -215.46872609714046, -4382.063217481598, -63.46049239812419, -0.144000006839633, 1.0240000486373901, -0.03200000151991844, 0.0, 0.0, 0.0, 0.0, 0.0, 1.7151012892986608E9, 0.0, 2024-05-07 12:01:29.298
98.0, -978.0679861619137, -177.5835395460017, -4315.822109466419, -94.10523263504729, -0.144000006839633, 1.0240000486373901, -0.03200000151991844, 0.0, 0.0, 0.0, 0.0, 0.0, 1.7151012892986715E9, 0.0, 2024-05-07 12:01:29.298
99.0, -782.1271476834081, -25.309772950131446, -4196.803533276543, 74.18652547104284, -0.144000006839633, 1.0240000486373901, -0.03200000151991844, 0.0, 0.0, 0.0, 0.0, 0.0, 1.7151012892989607E9, 0.0, 2024-05-07 12:01:29.298
99.0, -955.1274398337118, -181.82084619579837, -4290.3758301679045, -57.102662473451346, -0.144000006839633, 1.0240000486373901, -0.03200000151991844, 0.0, 0.0, 0.0, 0.0, 0.0, 1.715101289298974E9, 0.0, 2024-05-07 12:01:29.298
100.0, -993.7082477766089, -175.74724866775796, -4411.810381729156, -59.35034234682098, -0.144000006839633, 1.0240000486373901, -0.04800000227987766, 0.0, 0.0, 0.0, 0.0, 0.0, 1.7151012892996008E9, 0.0, 2024-05-07 12:01:29.299
100.0, -823.6624765913002, -75.74232385260984, -4172.815814960748, 24.026987265329808, -0.144000006839633, 1.0240000486373901, -0.04800000227987766, 0.0, 0.0, 0.0, 0.0, 0.0, 1.7151012892996097E9, 0.0, 2024-05-07 12:01:29.299
0.0, 25.906286993063986, -185.9777449965477, 114.31004214566201, -56.67257397854701, -0.144000006839633, 1.0240000486373901, -0.04800000227987766, 0.0, 0.0, 0.0, 0.0, 0.0, 1.715101289300455E9, 0.0, 2024-05-07 12:01:29.300
1.0, -34.20512499473989, -279.26580949127674, 44.15699877683073, -104.32263931399211, -0.144000006839633, 0.9920000471174717, -0.04800000227987766, 0.0, 0.0, 0.0, 0.0, 0.0, 1.71510128932851E9, 0.0, 2024-05-07 12:01:29.328
1.0, -82.22918032575399, -227.05306620988995, 55.53751434199512, -70.93655240954831, -0.144000006839633, 0.9920000471174717, -0.04800000227987766, 0.0, 0.0, 0.0, 0.0, 0.0, 1.7151012893285232E9, 0.0, 2024-05-07 12:01:29.328
2.0, 123.41295863781124, -114.39979974459857, 190.82091543916613, -11.195390517357737, -0.11200000531971455, 0.9920000471174717, -0.04800000227987766, 0.0, 0.0, 0.0, 0.0, 0.0, 1.7151012893289285E9, 0.0, 2024-05-07 12:01:29.328
2.0, -22.94428622815758, -259.7958903219551, 55.50385524239391, -104.15060391603038, -0.11200000531971455, 0.9920000471174717, -0.04800000227987766, 0.0, 0.0, 0.0, 0.0, 0.0, 1.7151012893289366E9, 0.0, 2024-05-07 12:01:29.328
3.0, -81.94868782907724, -222.8868176592514, -65.90825691912323, -153.9024930265732, -0.11200000531971455, 0.9920000471174717, -0.04800000227987766, 0.0, 0.0, 0.0, 0.0, 0.0, 1.7151012893299108E9, 0.0, 2024-05-07 12:01:29.329
3.0, 156.54847224522382, -99.73565201833844, -258.37659828877077, 8.708357046823949, -0.11200000531971455, 0.9920000471174717, -0.04800000227987766, 0.0, 0.0, 0.0, 0.0, 0.0, 1.7151012893299267E9, 0.0, 2024-05-07 12:01:29.329
4.0, -5.310657937079668, -249.2306729471311, -445.47257337206975, -93.37221224373206, -0.11200000531971455, 0.9920000471174717, -0.04800000227987766, 0.0, 0.0, 0.0, 0.0, 0.0, 1.715101289358914E9, 0.0, 2024-05-07 12:01:29.358
4.0, -85.06028459221125, -265.40200035553426, -468.5477560986765, -153.63696012971923, -0.11200000531971455, 0.9920000471174717, -0.04800000227987766, 0.0, 0.0, 0.0, 0.0, 0.0, 1.7151012893589492E9, 0.0, 2024-05-07 12:01:29.358
5.0, 135.53771429415792, -124.84534032084048, -316.3226082022302, -1.40433243336156, -0.11200000531971455, 0.9920000471174717, -0.04800000227987766, 0.0, 0.0, 0.0, 0.0, 0.0, 1.7151012893593507E9, 0.0, 2024-05-07 12:01:29.359
5.0, 72.89439003635198, -193.96617130190134, -335.27268127771094, -69.975398120936, -0.11200000531971455, 0.9920000471174717, -0.04800000227987766, 0.0, 0.0, 0.0, 0.0, 0.0, 1.7151012893593662E9, 0.0, 2024-05-07 12:01:29.359
6.0, -6.533605222590268, -276.2028314275667, -458.0909958225675, -121.47382051078603, -0.11200000531971455, 0.9920000471174717, -0.04800000227987766, 0.0, 0.0, 0.0, 0.0, 0.0, 1.7151012893602057E9, 0.0, 2024-05-07 12:01:29.360
6.0, 47.47429003752768, -202.84469379670918, -400.33572080684826, -82.02535577816889, -0.11200000531971455, 0.9920000471174717, -0.04800000227987766, 0.0, 0.0, 0.0, 0.0, 0.0, 1.7151012893602328E9, 0.0, 2024-05-07 12:01:29.360
7.0, 100.11338191386312, -151.4771679053083, -294.36191566241905, -34.977414335589856, -0.11200000531971455, 0.9920000471174717, -0.04800000227987766, 0.0, 0.0, 0.0, 0.0, 0.0, 1.7151012893884892E9, 0.0, 2024-05-07 12:01:29.388
7.0, -42.28330889903009, -281.5808075638488, -479.685178166721, -116.63438996812329, -0.11200000531971455, 0.9920000471174717, -0.04800000227987766, 0.0, 0.0, 0.0, 0.0, 0.0, 1.7151012893885007E9, 0.0, 2024-05-07 12:01:29.388
8.0, -34.48561749141663, -261.0038780076429, -435.5543586895801, -110.91982283582911, -0.11200000531971455, 0.9920000471174717, -0.04800000227987766, 0.0, 0.0, 0.0, 0.0, 0.0, 1.7151012893889563E9, 0.0, 2024-05-07 12:01:29.388
8.0, 123.58499403577298, -124.2806154275313, -339.04250043304637, -7.1039399658329785, -0.11200000531971455, 0.9920000471174717, -0.04800000227987766, 0.0, 0.0, 0.0, 0.0, 0.0, 1.7151012893889651E9, 0.0, 2024-05-07 12:01:29.388
9.0, -24.93391300458461, -265.91810654941946, -455.76851795008406, -119.36077703582123, -0.11200000531971455, 0.9920000471174717, -0.04800000227987766, 0.0, 0.0, 0.0, 0.0, 0.0, 1.7151012893898373E9, 0.0, 2024-05-07 12:01:29.389
9.0, -76.88112338911742, -332.7239394579083, -509.776413210202, -131.16390129597858, -0.11200000531971455, 0.9920000471174717, -0.04800000227987766, 0.0, 0.0, 0.0, 0.0, 0.0, 1.715101289389846E9, 0.0, 2024-05-07 12:01:29.389
10.0, 90.44574052840471, -159.90316250547767, -348.61664431961253, -50.21750665502623, -0.11200000531971455, 0.9920000471174717, -0.01600000075995922, 0.0, 0.0, 0.0, 0.0, 0.0, 1.7151012894188325E9, 0.0, 2024-05-07 12:01:29.418
10.0, 19.70927276648581, -222.98405505809933, -410.7663017832674, -98.18920338666067, -0.11200000531971455, 0.9920000471174717, -0.01600000075995922, 0.0, 0.0, 0.0, 0.0, 0.0, 1.7151012894188602E9, 0.0, 2024-05-07 12:01:29.418
11.0, -108.33368201646954, -303.12263130862266, -552.9161591990851, -163.52899551251903, -0.11200000531971455, 1.0240000486373901, -0.01600000075995922, 0.0, 0.0, 0.0, 0.0, 0.0, 1.715101289419047E9, 0.0, 2024-05-07 12:01:29.419
11.0, 45.21539046429098, -193.93625210225582, -375.3831083024852, -62.93316650437191, -0.11200000531971455, 1.0240000486373901, -0.01600000075995922, 0.0, 0.0, 0.0, 0.0, 0.0, 1.7151012894190564E9, 0.0, 2024-05-07 12:01:29.419
12.0, 104.0851556668058, -165.24747954215854, -356.4779140264727, -41.825171154458076, -0.11200000531971455, 1.0240000486373901, -0.01600000075995922, 0.0, 0.0, 0.0, 0.0, 0.0, 1.7151012894200163E9, 0.0, 2024-05-07 12:01:29.420
12.0, -52.83356667403132, -301.64911072608083, -449.76597852120176, -137.07668312592432, -0.11200000531971455, 1.0240000486373901, -0.01600000075995922, 0.0, 0.0, 0.0, 0.0, 0.0, 1.7151012894200244E9, 0.0, 2024-05-07 12:01:29.420
13.0, -19.888787964358926, -234.34961102344096, -474.48297732835636, -116.23796057282016, -0.11200000531971455, 1.0240000486373901, -0.01600000075995922, 0.0, 0.0, 0.0, 0.0, 0.0, 1.7151012894485743E9, 0.0, 2024-05-07 12:01:29.448
13.0, 158.41842222306877, -120.92592516727746, -265.80029970081523, 10.68302422342822, -0.11200000531971455, 1.0240000486373901, -0.01600000075995922, 0.0, 0.0, 0.0, 0.0, 0.0, 1.7151012894485865E9, 0.0, 2024-05-07 12:01:29.448
14.0, -36.88663326296955, -273.8653939552605, -472.41107275290415, -103.22310872701928, -0.11200000531971455, 1.0240000486373901, -0.01600000075995922, 0.0, 0.0, 0.0, 0.0, 0.0, 1.7151012894489424E9, 0.0, 2024-05-07 12:01:29.448
14.0, -119.6506192823872, -313.8935431810096, -500.71463561756536, -160.10698705306277, -0.11200000531971455, 1.0240000486373901, -0.01600000075995922, 0.0, 0.0, 0.0, 0.0, 0.0, 1.7151012894489508E9, 0.0, 2024-05-07 12:01:29.448
15.0, 110.92169278580695, -160.224793901667, -332.46027651103213, -20.518961106892675, -0.11200000531971455, 1.0240000486373901, -0.01600000075995922, 0.0, 0.0, 0.0, 0.0, 0.0, 1.7151012894497416E9, 0.0, 2024-05-07 12:01:29.449
15.0, 17.76452478952706, -220.32124628964812, -396.07223485736176, -98.61181208165362, -0.11200000531971455, 1.0240000486373901, -0.01600000075995922, 0.0, 0.0, 0.0, 0.0, 0.0, 1.7151012894497476E9, 0.0, 2024-05-07 12:01:29.449
16.0, -69.85385137237608, -345.6191145051271, -471.689272061456, -138.01539801480249, -0.11200000531971455, 1.0240000486373901, -0.01600000075995922, 0.0, 0.0, 0.0, 0.0, 0.0, 1.7151012894787164E9, 0.0, 2024-05-07 12:01:29.478
16.0, 14.854882624000311, -213.67170416843146, -412.2173829660751, -76.9428317383863, -0.11200000531971455, 1.0240000486373901, -0.01600000075995922, 0.0, 0.0, 0.0, 0.0, 0.0, 1.7151012894787347E9, 0.0, 2024-05-07 12:01:29.478
17.0, 120.51827607210726, -163.38500936422497, -297.06960323033854, -43.414628635626286, -0.11200000531971455, 1.0240000486373901, -0.01600000075995922, 0.0, 0.0, 0.0, 0.0, 0.0, 1.7151012894790063E9, 0.0, 2024-05-07 12:01:29.479
17.0, -41.91679870337248, -300.65055743791163, -493.8182600992732, -128.336536929477, -0.11200000531971455, 1.0240000486373901, -0.01600000075995922, 0.0, 0.0, 0.0, 0.0, 0.0, 1.715101289479014E9, 0.0, 2024-05-07 12:01:29.479
18.0, -66.9554289067164, -281.29657516721636, -447.2714652507566, -99.50564817106351, -0.11200000531971455, 1.0240000486373901, -0.01600000075995922, 0.0, 0.0, 0.0, 0.0, 0.0, 1.7151012894800332E9, 0.0, 2024-05-07 12:01:29.480
18.0, 153.91932257637382, -124.84908022079617, -331.2485489253886, -11.528241613414139, -0.11200000531971455, 1.0240000486373901, -0.01600000075995922, 0.0, 0.0, 0.0, 0.0, 0.0, 1.7151012894800453E9, 0.0, 2024-05-07 12:01:29.480
19.0, -25.506117697805166, -276.44966482464224, -446.0859169648029, -122.36017680028453, -0.11200000531971455, 1.0240000486373901, -0.01600000075995922, 0.0, 0.0, 0.0, 0.0, 0.0, 1.715101289508463E9, 0.0, 2024-05-07 12:01:29.508
19.0, -69.78279327321798, -291.15869135037065, -536.2324654967524, -173.5107884942554, -0.11200000531971455, 1.0240000486373901, -0.01600000075995922, 0.0, 0.0, 0.0, 0.0, 0.0, 1.7151012895084736E9, 0.0, 2024-05-07 12:01:29.508
20.0, 115.9817774258554, -137.7666946677491, -322.3849860304035, -42.83120424253866, -0.11200000531971455, 1.0240000486373901, -0.03200000151991844, 0.0, 0.0, 0.0, 0.0, 0.0, 1.7151012895089643E9, 0.0, 2024-05-07 12:01:29.508
20.0, 0.2169141974300146, -226.2228084197268, -430.8832236449234, -75.91809915052727, -0.11200000531971455, 1.0240000486373901, -0.03200000151991844, 0.0, 0.0, 0.0, 0.0, 0.0, 1.7151012895089767E9, 0.0, 2024-05-07 12:01:29.508
21.0, -73.68724882695824, -335.84675592090935, -547.0145970690064, -163.96282390737906, -0.11200000531971455, 1.0240000486373901, -0.03200000151991844, 0.0, 0.0, 0.0, 0.0, 0.0, 1.7151012895103145E9, 0.0, 2024-05-07 12:01:29.510
21.0, 12.06117735709995, -216.33451293688267, -394.62863347446546, -69.7921430231072, -0.11200000531971455, 1.0240000486373901, -0.03200000151991844, 0.0, 0.0, 0.0, 0.0, 0.0, 1.7151012895103393E9, 0.0, 2024-05-07 12:01:29.510
22.0, 91.04038462135941, -149.83535182476044, -360.27765238145366, -28.76918040914461, -0.11200000531971455, 1.0240000486373901, -0.03200000151991844, 0.0, 0.0, 0.0, 0.0, 0.0, 1.715101289538556E9, 0.0, 2024-05-07 12:01:29.538
22.0, -16.384501705877483, -290.63136545661837, -425.39305050997064, -132.68230067798868, -0.11200000531971455, 1.0240000486373901, -0.03200000151991844, 0.0, 0.0, 0.0, 0.0, 0.0, 1.7151012895385773E9, 0.0, 2024-05-07 12:01:29.538
23.0, -21.156614049337804, -245.565570990555, -481.831880741287, -102.52000753534958, -0.11200000531971455, 1.0240000486373901, -0.03200000151991844, 0.0, 0.0, 0.0, 0.0, 0.0, 1.715101289539152E9, 0.0, 2024-05-07 12:01:29.539
23.0, 157.3375911358744, -111.08250848390162, -266.1555901966058, -3.6033936073072255, -0.11200000531971455, 1.0240000486373901, -0.03200000151991844, 0.0, 0.0, 0.0, 0.0, 0.0, 1.7151012895391712E9, 0.0, 2024-05-07 12:01:29.539
24.0, 0.5983839929103851, -252.11039591301233, -432.7718731225468, -105.01452080579475, -0.11200000531971455, 1.0240000486373901, -0.03200000151991844, 0.0, 0.0, 0.0, 0.0, 0.0, 1.7151012895399184E9, 0.0, 2024-05-07 12:01:29.539
24.0, -49.10488641820848, -250.47605963237584, -456.95032633608207, -122.01984590431675, -0.11200000531971455, 1.0240000486373901, -0.03200000151991844, 0.0, 0.0, 0.0, 0.0, 0.0, 1.7151012895399413E9, 0.0, 2024-05-07 12:01:29.539
25.0, 114.71395134087652, -144.09460539277643, -332.3331199125387, -36.271419720258564, -0.11200000531971455, 1.0240000486373901, -0.03200000151991844, 0.0, 0.0, 0.0, 0.0, 0.0, 1.7151012895685055E9, 0.0, 2024-05-07 12:01:29.568
25.0, 39.642939530313015, -209.251142420806, -366.76263890461996, -74.62409376585856, -0.11200000531971455, 1.0240000486373901, -0.03200000151991844, 0.0, 0.0, 0.0, 0.0, 0.0, 1.7151012895685196E9, 0.0, 2024-05-07 12:01:29.568
26.0, -29.02162365615368, -315.9654477564618, -457.8965210248716, -123.44474778743461, -0.11200000531971455, 1.0240000486373901, -0.03200000151991844, 0.0, 0.0, 0.0, 0.0, 0.0, 1.7151012895689447E9, 0.0, 2024-05-07 12:01:29.568
26.0, -11.64978836197406, -223.5525198513642, -511.76603998662904, -76.62494024215266, -0.11200000531971455, 1.0240000486373901, -0.03200000151991844, 0.0, 0.0, 0.0, 0.0, 0.0, 1.7151012895689595E9, 0.0, 2024-05-07 12:01:29.568
27.0, 96.02567126229405, -160.91293549351394, -311.47569785965607, -41.93736815312877, -0.11200000531971455, 1.0240000486373901, -0.03200000151991844, 0.0, 0.0, 0.0, 0.0, 0.0, 1.7151012895698652E9, 0.0, 2024-05-07 12:01:29.569
27.0, -71.65648315101862, -299.7455016486347, -527.0771904052235, -158.67086547007784, -0.11200000531971455, 1.0240000486373901, -0.03200000151991844, 0.0, 0.0, 0.0, 0.0, 0.0, 1.715101289569874E9, 0.0, 2024-05-07 12:01:29.569
28.0, -57.63559821713716, -268.99604421295226, -406.30086123617366, -139.65721409535035, -0.11200000531971455, 1.0240000486373901, -0.03200000151991844, 0.0, 0.0, 0.0, 0.0, 0.0, 1.7151012895985684E9, 0.0, 2024-05-07 12:01:29.598
28.0, 136.8429393786937, -128.22246998082846, -328.08833346283063, -14.879191973712295, -0.11200000531971455, 1.0240000486373901, -0.03200000151991844, 0.0, 0.0, 0.0, 0.0, 0.0, 1.7151012895985796E9, 0.0, 2024-05-07 12:01:29.598
29.0, -29.986517844721675, -267.4327660314739, -424.72360841790214, -119.12890323856845, -0.11200000531971455, 1.0240000486373901, -0.03200000151991844, 0.0, 0.0, 0.0, 0.0, 0.0, 1.7151012895989628E9, 0.0, 2024-05-07 12:01:29.598
29.0, -49.258222316391766, -288.7950745783746, -464.62460104515776, -166.41245837835595, -0.11200000531971455, 1.0240000486373901, -0.03200000151991844, 0.0, 0.0, 0.0, 0.0, 0.0, 1.715101289598971E9, 0.0, 2024-05-07 12:01:29.598
30.0, 101.19047310110182, -150.8825238123536, -311.8796070548706, -21.611011893954128, -0.11200000531971455, 1.0240000486373901, -0.04800000227987766, 0.0, 0.0, 0.0, 0.0, 0.0, 1.7151012895999403E9, 0.0, 2024-05-07 12:01:29.599
30.0, 51.300207692198455, -224.83530553616583, -427.61455108365044, -107.4379759770818, -0.11200000531971455, 1.0240000486373901, -0.04800000227987766, 0.0, 0.0, 0.0, 0.0, 0.0, 1.7151012895999577E9, 0.0, 2024-05-07 12:01:29.599
31.0, -76.31265859585255, -310.4116963222623, -518.3407841087319, -123.18295479053631, -0.11200000531971455, 1.008000047877431, -0.04800000227987766, 0.0, 0.0, 0.0, 0.0, 0.0, 1.7151012896284811E9, 0.0, 2024-05-07 12:01:29.628
31.0, 27.076875679194927, -225.7328815255314, -385.6827927804552, -85.29776823939756, -0.11200000531971455, 1.008000047877431, -0.04800000227987766, 0.0, 0.0, 0.0, 0.0, 0.0, 1.7151012896284933E9, 0.0, 2024-05-07 12:01:29.628
32.0, 111.05632918421179, -174.42519403342158, -352.87265046918765, -45.905402006115764, -0.0800000037997961, 1.008000047877431, -0.04800000227987766, 0.0, 0.0, 0.0, 0.0, 0.0, 1.7151012896290047E9, 0.0, 2024-05-07 12:01:29.629
32.0, -37.53363595530391, -279.6173600871116, -420.2469481709413, -117.80871855420992, -0.0800000037997961, 1.008000047877431, -0.04800000227987766, 0.0, 0.0, 0.0, 0.0, 0.0, 1.715101289629016E9, 0.0, 2024-05-07 12:01:29.629
33.0, -19.567156568169594, -238.8187914704904, -520.6707417811267, -94.71857622778043, -0.0800000037997961, 1.008000047877431, -0.04800000227987766, 0.0, 0.0, 0.0, 0.0, 0.0, 1.715101289629848E9, 0.0, 2024-05-07 12:01:29.629
33.0, 182.26402434054762, -85.98029998131096, -745.1114878719673, 15.630911864805967, -0.0800000037997961, 1.008000047877431, -0.04800000227987766, 0.0, 0.0, 0.0, 0.0, 0.0, 1.715101289629855E9, 0.0, 2024-05-07 12:01:29.629
34.0, 21.863455140963197, -224.60717163886875, -892.579483024776, -87.05178131861612, -0.0800000037997961, 1.008000047877431, -0.04800000227987766, 0.0, 0.0, 0.0, 0.0, 0.0, 1.7151012896586585E9, 0.0, 2024-05-07 12:01:29.658
34.0, -2.5468718698248267, -270.0207768008113, -917.8574668252841, -137.88076161639765, -0.0800000037997961, 1.008000047877431, -0.04800000227987766, 0.0, 0.0, 0.0, 0.0, 0.0, 1.7151012896586735E9, 0.0, 2024-05-07 12:01:29.658
35.0, 89.33125034160912, -153.93428217619658, -840.0226689474657, -54.52213150402531, -0.0800000037997961, 1.008000047877431, -0.04800000227987766, 0.0, 0.0, 0.0, 0.0, 0.0, 1.7151012896589885E9, 0.0, 2024-05-07 12:01:29.658
35.0, 55.01766824815422, -198.14363955240697, -881.2775053586811, -76.59502104250714, -0.0800000037997961, 1.008000047877431, -0.04800000227987766, 0.0, 0.0, 0.0, 0.0, 0.0, 1.7151012896590052E9, 0.0, 2024-05-07 12:01:29.659
36.0, -29.72472484782338, -293.5148283224553, -957.0329188611358, -155.1329201119952, -0.0800000037997961, 1.008000047877431, -0.04800000227987766, 0.0, 0.0, 0.0, 0.0, 0.0, 1.715101289660182E9, 0.0, 2024-05-07 12:01:29.660
36.0, 57.61689871735871, -191.30336253345013, -861.9646619874984, -54.54831080371514, -0.0800000037997961, 1.008000047877431, -0.04800000227987766, 0.0, 0.0, 0.0, 0.0, 0.0, 1.715101289660194E9, 0.0, 2024-05-07 12:01:29.660
37.0, 126.64423219952732, -151.54074620455503, -808.1811607247218, -41.17068866221234, -0.0800000037997961, 1.008000047877431, -0.04800000227987766, 0.0, 0.0, 0.0, 0.0, 0.0, 1.7151012896885023E9, 0.0, 2024-05-07 12:01:29.688
37.0, -25.01619080360979, -294.26654821354896, -981.3123493734747, -126.78073854791, -0.0800000037997961, 1.008000047877431, -0.04800000227987766, 0.0, 0.0, 0.0, 0.0, 0.0, 1.7151012896885116E9, 0.0, 2024-05-07 12:01:29.688
38.0, -11.65726816188544, -243.8227776112035, -925.1390520390123, -86.89470552047715, -0.0800000037997961, 1.008000047877431, -0.04800000227987766, 0.0, 0.0, 0.0, 0.0, 0.0, 1.7151012896889696E9, 0.0, 2024-05-07 12:01:29.688
38.0, 147.63629065081477, -116.47544422000647, -823.4100333442912, -15.043747571762651, -0.0800000037997961, 1.008000047877431, -0.04800000227987766, 0.0, 0.0, 0.0, 0.0, 0.0, 1.7151012896889808E9, 0.0, 2024-05-07 12:01:29.688
39.0, -7.8687495067715645, -266.91665983758867, -929.65311128553, -103.36896482529119, -0.0800000037997961, 1.008000047877431, -0.04800000227987766, 0.0, 0.0, 0.0, 0.0, 0.0, 1.7151012896898377E9, 0.0, 2024-05-07 12:01:29.689
39.0, -21.32116964738816, -260.43167331442237, -933.7670012367889, -134.14834146061912, -0.0800000037997961, 1.008000047877431, -0.04800000227987766, 0.0, 0.0, 0.0, 0.0, 0.0, 1.7151012896898456E9, 0.0, 2024-05-07 12:01:29.689
40.0, 118.51742959581316, -132.88612522557378, -793.4796139989048, -16.801500550936908, -0.0800000037997961, 1.008000047877431, -0.06400000303983688, 0.0, 0.0, 0.0, 0.0, 0.0, 1.7151012897188044E9, 0.0, 2024-05-07 12:01:29.718
40.0, 42.107533601112664, -198.19225825183094, -871.3817300759256, -51.75460553681478, -0.0800000037997961, 1.008000047877431, -0.06400000303983688, 0.0, 0.0, 0.0, 0.0, 0.0, 1.715101289718819E9, 0.0, 2024-05-07 12:01:29.718
41.0, -34.29114269372076, -282.253989555873, -1000.4045386472717, -103.05107332905754, -0.0800000037997961, 1.0400000493973494, -0.06400000303983688, 0.0, 0.0, 0.0, 0.0, 0.0, 1.7151012897189748E9, 0.0, 2024-05-07 12:01:29.718
41.0, 68.23821459151804, -191.58759493008256, -862.1404372854158, -55.984432386700064, -0.0800000037997961, 1.0400000493973494, -0.06400000303983688, 0.0, 0.0, 0.0, 0.0, 0.0, 1.7151012897189872E9, 0.0, 2024-05-07 12:01:29.718
42.0, 152.32612519524992, -142.98011520598084, -800.2899718182161, 1.0640015373937786, -0.11200000531971455, 1.0400000493973494, -0.06400000303983688, 0.0, 0.0, 0.0, 0.0, 0.0, 1.7151012897197835E9, 0.0, 2024-05-07 12:01:29.719
42.0, -27.32744897622615, -283.85840663686395, -892.108255630359, -115.93876857636496, -0.11200000531971455, 1.0400000493973494, -0.06400000303983688, 0.0, 0.0, 0.0, 0.0, 0.0, 1.7151012897197907E9, 0.0, 2024-05-07 12:01:29.719
43.0, -22.824609429575503, -228.48544789291918, -933.1835768437013, -89.56873398879543, -0.11200000531971455, 1.0400000493973494, -0.06400000303983688, 0.0, 0.0, 0.0, 0.0, 0.0, 1.715101289748633E9, 0.0, 2024-05-07 12:01:29.748
43.0, 163.42988816369325, -94.8962214756757, -727.4965590806678, 16.203116558026522, -0.11200000531971455, 1.0400000493973494, -0.06400000303983688, 0.0, 0.0, 0.0, 0.0, 0.0, 1.7151012897486513E9, 0.0, 2024-05-07 12:01:29.748
44.0, 25.573435897007585, -243.54228511452675, -905.2951428741217, -82.74715646961704, -0.11200000531971455, 1.0400000493973494, -0.06400000303983688, 0.0, 0.0, 0.0, 0.0, 0.0, 1.7151012897489796E9, 0.0, 2024-05-07 12:01:29.748
44.0, -78.69123496767133, -264.0107575720176, -972.130894982256, -132.47660618042573, -0.11200000531971455, 1.0400000493973494, -0.06400000303983688, 0.0, 0.0, 0.0, 0.0, 0.0, 1.7151012897489884E9, 0.0, 2024-05-07 12:01:29.748
45.0, 27.159153478220105, -200.52221592422575, -866.9536885283887, -83.84668705658987, -0.11200000531971455, 1.0400000493973494, -0.06400000303983688, 0.0, 0.0, 0.0, 0.0, 0.0, 1.7151012897498093E9, 0.0, 2024-05-07 12:01:29.749
45.0, 23.561369720846415, -234.67498231958598, -904.0198369892314, -105.84103869600222, -0.11200000531971455, 1.0400000493973494, -0.06400000303983688, 0.0, 0.0, 0.0, 0.0, 0.0, 1.7151012897498217E9, 0.0, 2024-05-07 12:01:29.749
46.0, -5.060084640048444, -263.18423968181014, -919.2636692086235, -105.31745270220563, -0.11200000531971455, 1.0400000493973494, -0.06400000303983688, 0.0, 0.0, 0.0, 0.0, 0.0, 1.7151012897789495E9, 0.0, 2024-05-07 12:01:29.778
46.0, 69.65937657468021, -179.30202357564121, -881.7524726530537, -60.06466323835775, -0.11200000531971455, 1.0400000493973494, -0.06400000303983688, 0.0, 0.0, 0.0, 0.0, 0.0, 1.715101289778972E9, 0.0, 2024-05-07 12:01:29.778
47.0, 104.93037305679172, -210.2122967094183, -831.2488636514172, -94.18377053411677, -0.11200000531971455, 1.0400000493973494, -0.06400000303983688, 0.0, 0.0, 0.0, 0.0, 0.0, 1.7151012897790961E9, 0.0, 2024-05-07 12:01:29.779
47.0, -69.46116187702864, -339.1715269815177, -988.9529649829492, -188.0290801222436, -0.11200000531971455, 1.0400000493973494, -0.06400000303983688, 0.0, 0.0, 0.0, 0.0, 0.0, 1.7151012897791064E9, 0.0, 2024-05-07 12:01:29.779
48.0, -34.025609796866775, -292.9463635291904, -975.2724109450355, -174.64771808078513, -0.11200000531971455, 1.0400000493973494, -0.06400000303983688, 0.0, 0.0, 0.0, 0.0, 0.0, 1.7151012898085408E9, 0.0, 2024-05-07 12:01:29.808
48.0, 165.75984583608806, -130.6496650520712, -760.5086559895426, -20.74335510423407, -0.11200000531971455, 1.0400000493973494, -0.06400000303983688, 0.0, 0.0, 0.0, 0.0, 0.0, 1.7151012898085532E9, 0.0, 2024-05-07 12:01:29.808
49.0, 33.7189380005002, -268.6744128167629, -868.4496485106647, -132.05025758547708, -0.11200000531971455, 1.0400000493973494, -0.06400000303983688, 0.0, 0.0, 0.0, 0.0, 0.0, 1.7151012898090112E9, 0.0, 2024-05-07 12:01:29.809
49.0, -32.09582141973078, -281.3900726661086, -940.0762124620378, -134.559730455745, -0.11200000531971455, 1.0400000493973494, -0.06400000303983688, 0.0, 0.0, 0.0, 0.0, 0.0, 1.7151012898090203E9, 0.0, 2024-05-07 12:01:29.809
50.0, 162.4500343753025, -143.26434760261327, -750.7362974053249, -42.300138448830694, -0.11200000531971455, 1.0400000493973494, -0.04800000227987766, 0.0, 0.0, 0.0, 0.0, 0.0, 1.7151012898097436E9, 0.0, 2024-05-07 12:01:29.809
50.0, 91.4891726160422, -226.06199272163212, -841.1109798345715, -72.42877249186859, -0.11200000531971455, 1.0400000493973494, -0.04800000227987766, 0.0, 0.0, 0.0, 0.0, 0.0, 1.7151012898097603E9, 0.0, 2024-05-07 12:01:29.809
51.0, -4.83569064270705, -310.3294185232371, -926.2236230261624, -152.07368194824085, -0.11200000531971455, 1.0240000486373901, -0.04800000227987766, 0.0, 0.0, 0.0, 0.0, 0.0, 1.7151012898109565E9, 0.0, 2024-05-07 12:01:29.810
51.0, 38.797722140327096, -212.44501698296517, -826.0840618126094, -85.0584146422334, -0.11200000531971455, 1.0240000486373901, -0.04800000227987766, 0.0, 0.0, 0.0, 0.0, 0.0, 1.715101289810977E9, 0.0, 2024-05-07 12:01:29.810
52.0, 138.17060386296362, -183.13168113026768, -817.8824612097815, -46.42150820000097, -0.11200000531971455, 1.0240000486373901, -0.04800000227987766, 0.0, 0.0, 0.0, 0.0, 0.0, 1.71510128983851E9, 0.0, 2024-05-07 12:01:29.838
52.0, -9.301131189800799, -316.94904144480824, -918.545608417131, -153.25175043428317, -0.11200000531971455, 1.0240000486373901, -0.04800000227987766, 0.0, 0.0, 0.0, 0.0, 0.0, 1.7151012898385217E9, 0.0, 2024-05-07 12:01:29.838
53.0, 3.945594453252852, -277.88952630758286, -947.18950217776, -119.84322413010523, -0.11200000531971455, 1.0240000486373901, -0.04800000227987766, 0.0, 0.0, 0.0, 0.0, 0.0, 1.715101289838961E9, 0.0, 2024-05-07 12:01:29.838
53.0, 147.49043455254287, -142.63604441005737, -758.7658626101911, -17.205409746151417, -0.11200000531971455, 1.0240000486373901, -0.04800000227987766, 0.0, 0.0, 0.0, 0.0, 0.0, 1.715101289838969E9, 0.0, 2024-05-07 12:01:29.838
54.0, 2.165402074344456, -275.2117579393089, -909.1921186279505, -125.20250076660886, -0.11200000531971455, 1.0240000486373901, -0.04800000227987766, 0.0, 0.0, 0.0, 0.0, 0.0, 1.7151012898398144E9, 0.0, 2024-05-07 12:01:29.839
54.0, -28.56535586155951, -307.64417035505176, -937.9743886869401, -136.81115022907034, -0.11200000531971455, 1.0240000486373901, -0.04800000227987766, 0.0, 0.0, 0.0, 0.0, 0.0, 1.7151012898398204E9, 0.0, 2024-05-07 12:01:29.839
55.0, 134.64387820474803, -151.57440530415624, -763.048048059456, -39.50643318193033, -0.11200000531971455, 1.0240000486373901, -0.04800000227987766, 0.0, 0.0, 0.0, 0.0, 0.0, 1.71510128986873E9, 0.0, 2024-05-07 12:01:29.868
55.0, 105.12858775444329, -200.32774112652987, -826.7235847050324, -70.48028461495414, -0.11200000531971455, 1.0240000486373901, -0.04800000227987766, 0.0, 0.0, 0.0, 0.0, 0.0, 1.7151012898687477E9, 0.0, 2024-05-07 12:01:29.868
56.0, 28.11282796692103, -275.63062673434615, -854.178190279752, -115.4413618822582, -0.11200000531971455, 1.0240000486373901, -0.04800000227987766, 0.0, 0.0, 0.0, 0.0, 0.0, 1.7151012898690453E9, 0.0, 2024-05-07 12:01:29.869
56.0, 66.78339350875467, -204.89041907247156, -903.1633998993784, -96.2481953096576, -0.11200000531971455, 1.0240000486373901, -0.04800000227987766, 0.0, 0.0, 0.0, 0.0, 0.0, 1.7151012898690543E9, 0.0, 2024-05-07 12:01:29.869
57.0, 118.55108869541436, -167.79061151202768, -778.7107490738854, -32.52403996465728, -0.11200000531971455, 1.0240000486373901, -0.04800000227987766, 0.0, 0.0, 0.0, 0.0, 0.0, 1.715101289869781E9, 0.0, 2024-05-07 12:01:29.869
57.0, -16.53409770410508, -284.8494801251218, -930.9957353696227, -135.84625604050234, -0.11200000531971455, 1.0240000486373901, -0.04800000227987766, 0.0, 0.0, 0.0, 0.0, 0.0, 1.7151012898697896E9, 0.0, 2024-05-07 12:01:29.869
58.0, 34.48561749141663, -244.16684840712696, -910.2542502153665, -91.99966895999387, -0.11200000531971455, 1.0240000486373901, -0.04800000227987766, 0.0, 0.0, 0.0, 0.0, 0.0, 1.7151012898985329E9, 0.0, 2024-05-07 12:01:29.898
58.0, 169.91487468685955, -110.84689478669316, -730.8923882404342, -3.259322811383754, -0.11200000531971455, 1.0240000486373901, -0.04800000227987766, 0.0, 0.0, 0.0, 0.0, 0.0, 1.7151012898985448E9, 0.0, 2024-05-07 12:01:29.898
59.0, 47.732343134470284, -228.04787959810346, -864.0739655625075, -80.98566359048709, -0.11200000531971455, 1.0240000486373901, -0.04800000227987766, 0.0, 0.0, 0.0, 0.0, 0.0, 1.7151012898989773E9, 0.0, 2024-05-07 12:01:29.898
59.0, -24.877814505249262, -237.4425082867965, -920.5726341931149, -148.78630988718942, -0.11200000531971455, 1.0240000486373901, -0.04800000227987766, 0.0, 0.0, 0.0, 0.0, 0.0, 1.7151012898989854E9, 0.0, 2024-05-07 12:01:29.898
60.0, 120.67909177020192, -139.07565965224057, -820.433072979562, -31.94809537148103, -0.11200000531971455, 1.0240000486373901, 0.01600000075995922, 0.0, 0.0, 0.0, 0.0, 0.0, 1.715101289899894E9, 0.0, 2024-05-07 12:01:29.899
60.0, 68.1073180930689, -206.52101545315236, -820.6873861765489, -75.78346275212243, -0.11200000531971455, 1.0240000486373901, 0.01600000075995922, 0.0, 0.0, 0.0, 0.0, 0.0, 1.715101289899904E9, 0.0, 2024-05-07 12:01:29.899
61.0, -39.81123502831906, -286.6595917036757, -948.4610681626946, -152.29059614567086, -0.11200000531971455, 1.008000047877431, 0.01600000075995922, 0.0, 0.0, 0.0, 0.0, 0.0, 1.7151012899290013E9, 0.0, 2024-05-07 12:01:29.929
61.0, 86.80681787151843, -182.98582503199577, -878.8652698872611, -69.18627923028544, -0.11200000531971455, 1.008000047877431, 0.01600000075995922, 0.0, 0.0, 0.0, 0.0, 0.0, 1.7151012899290228E9, 0.0, 2024-05-07 12:01:29.929
62.0, 94.89248157572001, -165.81220443546772, -822.3254623571411, -36.593051116447896, -0.12800000607967377, 1.008000047877431, 0.01600000075995922, 0.0, 0.0, 0.0, 0.0, 0.0, 1.7151012899291446E9, 0.0, 2024-05-07 12:01:29.929
62.0, -19.032350874505937, -285.74705611448735, -961.9134883033112, -117.46838765824214, -0.12800000607967377, 1.008000047877431, 0.01600000075995922, 0.0, 0.0, 0.0, 0.0, 0.0, 1.7151012899291592E9, 0.0, 2024-05-07 12:01:29.929
63.0, 2.82362446654588, -246.57534397859126, -907.2174514513463, -95.53387441812083, -0.12800000607967377, 1.008000047877431, 0.01600000075995922, 0.0, 0.0, 0.0, 0.0, 0.0, 1.715101289929884E9, 0.0, 2024-05-07 12:01:29.929
63.0, 122.70985744614154, -126.20292400475591, -818.7276785997674, -3.4463178091682494, -0.12800000607967377, 1.008000047877431, 0.01600000075995922, 0.0, 0.0, 0.0, 0.0, 0.0, 1.7151012899298937E9, 0.0, 2024-05-07 12:01:29.929
64.0, 3.422008459456265, -264.07433587126434, -926.9192444179207, -113.40311640640721, -0.12800000607967377, 1.008000047877431, 0.01600000075995922, 0.0, 0.0, 0.0, 0.0, 0.0, 1.7151012899585955E9, 0.0, 2024-05-07 12:01:29.958
64.0, -8.661608297377825, -300.38128464110196, -930.4833690756932, -82.74341656966135, -0.12800000607967377, 1.008000047877431, 0.01600000075995922, 0.0, 0.0, 0.0, 0.0, 0.0, 1.7151012899586086E9, 0.0, 2024-05-07 12:01:29.958
65.0, 119.56460158340633, -139.9881952414289, -821.192272670567, -40.662062268238515, -0.12800000607967377, 1.008000047877431, 0.01600000075995922, 0.0, 0.0, 0.0, 0.0, 0.0, 1.7151012899592314E9, 0.0, 2024-05-07 12:01:29.959
65.0, 64.41977673675865, -205.58978036418557, -869.1751891020685, -66.14574056630954, -0.12800000607967377, 1.008000047877431, 0.01600000075995922, 0.0, 0.0, 0.0, 0.0, 0.0, 1.7151012899592457E9, 0.0, 2024-05-07 12:01:29.959
66.0, -12.764278548769653, -289.7711884668097, -976.7908103270456, -122.68928799638525, -0.12800000607967377, 1.008000047877431, 0.01600000075995922, 0.0, 0.0, 0.0, 0.0, 0.0, 1.7151012899601707E9, 0.0, 2024-05-07 12:01:29.960
66.0, 40.55173521954566, -206.52101545315236, -856.1715569561347, -45.508972610812634, -0.12800000607967377, 1.008000047877431, 0.01600000075995922, 0.0, 0.0, 0.0, 0.0, 0.0, 1.715101289960192E9, 0.0, 2024-05-07 12:01:29.960
67.0, 112.48123106732965, -151.34627140685916, -860.6893561026081, -44.1887879264541, -0.12800000607967377, 1.008000047877431, 0.01600000075995922, 0.0, 0.0, 0.0, 0.0, 0.0, 1.71510129001878E9, 0.0, 2024-05-07 12:01:30.018
67.0, 7.917368206195533, -268.43879911955446, -935.0348273217678, -117.30757196014747, -0.12800000607967377, 1.008000047877431, 0.01600000075995922, 0.0, 0.0, 0.0, 0.0, 0.0, 1.715101290018793E9, 0.0, 2024-05-07 12:01:30.018
68.0, -14.952120022848248, -240.49052675068378, -921.9750966764987, -89.30320109194145, -0.12800000607967377, 1.008000047877431, 0.01600000075995922, 0.0, 0.0, 0.0, 0.0, 0.0, 1.7151012900189853E9, 0.0, 2024-05-07 12:01:30.018
68.0, 133.60044611711055, -132.96466312464327, -809.5050853090361, -31.895736772101372, -0.12800000607967377, 1.008000047877431, 0.01600000075995922, 0.0, 0.0, 0.0, 0.0, 0.0, 1.7151012900189977E9, 0.0, 2024-05-07 12:01:30.018
69.0, -11.316937265917659, -265.1364674586803, -937.0805525975302, -112.64017681544647, -0.12800000607967377, 1.008000047877431, 0.01600000075995922, 0.0, 0.0, 0.0, 0.0, 0.0, 1.7151012900196612E9, 0.0, 2024-05-07 12:01:30.019
69.0, -37.14842625986785, -267.14105383493006, -963.4655467849225, -104.90606370707974, -0.12800000607967377, 1.008000047877431, 0.01600000075995922, 0.0, 0.0, 0.0, 0.0, 0.0, 1.7151012900196695E9, 0.0, 2024-05-07 12:01:30.019
70.0, 100.1956597128883, -155.60601745638996, -828.0736885890365, -40.250673273112625, -0.12800000607967377, 1.008000047877431, -0.0, 0.0, 0.0, 0.0, 0.0, 0.0, 1.715101290020651E9, 0.0, 2024-05-07 12:01:30.020
70.0, 24.380407811142504, -218.57097311038524, -929.9710027817637, -91.31526726810262, -0.12800000607967377, 1.008000047877431, -0.0, 0.0, 0.0, 0.0, 0.0, 0.0, 1.7151012900206752E9, 0.0, 2024-05-07 12:01:30.020
71.0, -49.0974066182971, -306.32024577073753, -973.6717337640002, -131.69496708968654, -0.12800000607967377, 1.0560000501573086, -0.0, 0.0, 0.0, 0.0, 0.0, 0.0, 1.7151012900211813E9, 0.0, 2024-05-07 12:01:30.021
71.0, 32.043462820351124, -215.48181574698538, -907.2099716514349, -86.69649082282558, -0.12800000607967377, 1.0560000501573086, -0.0, 0.0, 0.0, 0.0, 0.0, 0.0, 1.7151012900211957E9, 0.0, 2024-05-07 12:01:30.021
72.0, 78.65383596811444, -157.7788993306458, -811.6517878836021, -61.36988832289353, -0.144000006839633, 1.0560000501573086, -0.0, 0.0, 0.0, 0.0, 0.0, 0.0, 1.7151012900219495E9, 0.0, 2024-05-07 12:01:30.021
72.0, -51.50216228980571, -295.9943819930777, -964.4528803732246, -159.45250456081703, -0.144000006839633, 1.0560000501573086, -0.0, 0.0, 0.0, 0.0, 0.0, 0.0, 1.7151012900219564E9, 0.0, 2024-05-07 12:01:30.021
73.0, -30.397906839847565, -259.085309330374, -939.2833536714315, -160.36130025004968, -0.144000006839633, 1.0560000501573086, -0.0, 0.0, 0.0, 0.0, 0.0, 0.0, 1.715101290048511E9, 0.0, 2024-05-07 12:01:30.048
73.0, 125.35770661477, -133.82858001440763, -786.6430768799037, -42.16550205042586, -0.144000006839633, 1.0560000501573086, -0.0, 0.0, 0.0, 0.0, 0.0, 0.0, 1.715101290048524E9, 0.0, 2024-05-07 12:01:30.048
74.0, -13.25046554300934, -272.496590571478, -956.7150273649022, -143.3858943511732, -0.144000006839633, 1.0560000501573086, -0.0, 0.0, 0.0, 0.0, 0.0, 0.0, 1.7151012900489793E9, 0.0, 2024-05-07 12:01:30.048
74.0, -62.30299336183816, -290.56030735746026, -934.8740116236731, -106.92560968315229, -0.144000006839633, 1.0560000501573086, -0.0, 0.0, 0.0, 0.0, 0.0, 0.0, 1.7151012900489872E9, 0.0, 2024-05-07 12:01:30.048
75.0, 92.40170820523053, -167.22214671876281, -869.1639694022015, -64.10749509045854, -0.144000006839633, 1.0560000501573086, -0.0, 0.0, 0.0, 0.0, 0.0, 0.0, 1.7151012900499024E9, 0.0, 2024-05-07 12:01:30.049
75.0, 16.014251610264182, -228.50040749274194, -907.5503025474027, -89.2471025926061, -0.144000006839633, 1.0560000501573086, -0.0, 0.0, 0.0, 0.0, 0.0, 0.0, 1.7151012900499096E9, 0.0, 2024-05-07 12:01:30.049
76.0, -90.87582902330905, -308.24255434796214, -1015.2145424718037, -173.0620004995726, -0.144000006839633, 1.0560000501573086, -0.0, 0.0, 0.0, 0.0, 0.0, 0.0, 1.7151012900787835E9, 0.0, 2024-05-07 12:01:30.078
76.0, 4.8917891420423985, -191.91296622622758, -901.9030536143109, -87.1340591176413, -0.144000006839633, 1.0560000501573086, -0.0, 0.0, 0.0, 0.0, 0.0, 0.0, 1.715101290078802E9, 0.0, 2024-05-07 12:01:30.078
77.0, 65.83719881996512, -173.50517864432186, -899.0495099481195, -67.07323575532064, -0.144000006839633, 1.0560000501573086, -0.0, 0.0, 0.0, 0.0, 0.0, 0.0, 1.7151012900789804E9, 0.0, 2024-05-07 12:01:30.078
77.0, -54.78953435085714, -305.80039967689663, -975.5304640419781, -152.9413387379609, -0.144000006839633, 1.0560000501573086, -0.0, 0.0, 0.0, 0.0, 0.0, 0.0, 1.715101290078987E9, 0.0, 2024-05-07 12:01:30.078
78.0, -45.282708663493395, -278.0241627059877, -993.586701028049, -166.97344337170944, -0.144000006839633, 1.0560000501573086, -0.0, 0.0, 0.0, 0.0, 0.0, 0.0, 1.7151012901085224E9, 0.0, 2024-05-07 12:01:30.108
78.0, 97.86944194044918, -144.27786049060524, -825.956905214116, -31.97427467117086, -0.144000006839633, 1.0560000501573086, -0.0, 0.0, 0.0, 0.0, 0.0, 0.0, 1.7151012901085331E9, 0.0, 2024-05-07 12:01:30.108
79.0, -23.68478641938418, -273.7531969565898, -945.4242693986744, -122.17318180250004, -0.144000006839633, 1.0560000501573086, -0.0, 0.0, 0.0, 0.0, 0.0, 0.0, 1.7151012901386845E9, 0.0, 2024-05-07 12:01:30.138
79.0, -71.4021699540317, -295.399737900123, -971.2819376923144, -154.23160422267392, -0.144000006839633, 1.0560000501573086, -0.0, 0.0, 0.0, 0.0, 0.0, 0.0, 1.715101290138705E9, 0.0, 2024-05-07 12:01:30.138
80.0, 110.19615219440311, -144.38257768936455, -813.3758817631751, -52.09119653282687, -0.144000006839633, 1.0560000501573086, -0.01600000075995922, 0.0, 0.0, 0.0, 0.0, 0.0, 1.7151012901390443E9, 0.0, 2024-05-07 12:01:30.139
80.0, 62.187056463211775, -189.17909935861826, -878.3903025928885, -63.06406300282106, -0.144000006839633, 1.0560000501573086, -0.01600000075995922, 0.0, 0.0, 0.0, 0.0, 0.0, 1.7151012901390543E9, 0.0, 2024-05-07 12:01:30.139
81.0, -56.85395912639797, -269.17929931078106, -955.4546810798347, -160.6866715461947, -0.144000006839633, 1.0240000486373901, -0.01600000075995922, 0.0, 0.0, 0.0, 0.0, 0.0, 1.71510129013997E9, 0.0, 2024-05-07 12:01:30.139
81.0, 93.77051158901304, -143.44760270044208, -848.3963049482554, -37.09793761046603, -0.144000006839633, 1.0240000486373901, -0.01600000075995922, 0.0, 0.0, 0.0, 0.0, 0.0, 1.7151012901399868E9, 0.0, 2024-05-07 12:01:30.139
82.0, 129.5837935646996, -104.13377436622977, -784.1560434093699, -18.940723325591534, -0.12800000607967377, 1.0240000486373901, -0.01600000075995922, 0.0, 0.0, 0.0, 0.0, 0.0, 1.7151012901405306E9, 0.0, 2024-05-07 12:01:30.140
82.0, 17.570049991831183, -236.87778339348733, -925.8982517300174, -83.2445631637238, -0.12800000607967377, 1.0240000486373901, -0.01600000075995922, 0.0, 0.0, 0.0, 0.0, 0.0, 1.7151012901405487E9, 0.0, 2024-05-07 12:01:30.140
83.0, 60.45922268368304, -204.07512088213116, -853.7181825852022, -51.58631003880873, -0.12800000607967377, 1.0240000486373901, -0.01600000075995922, 0.0, 0.0, 0.0, 0.0, 0.0, 1.715101290141029E9, 0.0, 2024-05-07 12:01:30.141
83.0, 197.0590685652569, -53.94057706091553, -747.4377056444064, 42.01216615224257, -0.12800000607967377, 1.0240000486373901, -0.01600000075995922, 0.0, 0.0, 0.0, 0.0, 0.0, 1.715101290141049E9, 0.0, 2024-05-07 12:01:30.141
84.0, 76.0733049986884, -181.39262765087187, -866.4787212340161, -34.86895723687485, -0.12800000607967377, 1.0240000486373901, -0.01600000075995922, 0.0, 0.0, 0.0, 0.0, 0.0, 1.7151012901420324E9, 0.0, 2024-05-07 12:01:30.142
84.0, 49.20586371701211, -214.08309316355735, -857.0653930455446, -67.58560204925016, -0.12800000607967377, 1.0240000486373901, -0.01600000075995922, 0.0, 0.0, 0.0, 0.0, 0.0, 1.7151012901420412E9, 0.0, 2024-05-07 12:01:30.142
85.0, 203.03916859440506, -42.7620160933584, -785.7791599901393, 24.573012658860534, -0.12800000607967377, 1.0240000486373901, -0.01600000075995922, 0.0, 0.0, 0.0, 0.0, 0.0, 1.715101290168558E9, 0.0, 2024-05-07 12:01:30.168
85.0, 108.97320490889251, -131.68561733979732, -830.0146966660395, -44.83579061878845, -0.12800000607967377, 1.0240000486373901, -0.01600000075995922, 0.0, 0.0, 0.0, 0.0, 0.0, 1.7151012901685743E9, 0.0, 2024-05-07 12:01:30.168
86.0, -1.2753058848902583, -247.76837206445634, -957.6350427540019, -80.92956509115174, -0.12800000607967377, 1.0240000486373901, -0.01600000075995922, 0.0, 0.0, 0.0, 0.0, 0.0, 1.7151012901689796E9, 0.0, 2024-05-07 12:01:30.168
86.0, 54.02285485994071, -161.780592283234, -878.6894945893437, -51.43297414062545, -0.12800000607967377, 1.0240000486373901, -0.01600000075995922, 0.0, 0.0, 0.0, 0.0, 0.0, 1.715101290168988E9, 0.0, 2024-05-07 12:01:30.168
87.0, 100.40883401036263, -154.60746416822076, -860.0311337104067, -44.248626325745136, -0.12800000607967377, 1.0240000486373901, -0.01600000075995922, 0.0, 0.0, 0.0, 0.0, 0.0, 1.7151012901697867E9, 0.0, 2024-05-07 12:01:30.169
87.0, -23.449172722175717, -296.04674059245735, -995.5688480045646, -148.22158499388024, -0.12800000607967377, 1.0240000486373901, -0.01600000075995922, 0.0, 0.0, 0.0, 0.0, 0.0, 1.7151012901697934E9, 0.0, 2024-05-07 12:01:30.169
88.0, -28.51299726217985, -263.40115387924016, -940.0986518617719, -163.9441244076006, -0.12800000607967377, 1.0240000486373901, -0.01600000075995922, 0.0, 0.0, 0.0, 0.0, 0.0, 1.7151012901986897E9, 0.0, 2024-05-07 12:01:30.198
88.0, 105.48761815018952, -161.16724869050086, -872.9375284574926, -47.850149983074516, -0.12800000607967377, 1.0240000486373901, -0.01600000075995922, 0.0, 0.0, 0.0, 0.0, 0.0, 1.7151012901987035E9, 0.0, 2024-05-07 12:01:30.198
89.0, -44.17943817656487, -285.9527506120503, -970.0702101066709, -149.2388377818279, -0.12800000607967377, 1.0240000486373901, -0.01600000075995922, 0.0, 0.0, 0.0, 0.0, 0.0, 1.7151012901990168E9, 0.0, 2024-05-07 12:01:30.199
89.0, -94.06222378555685, -308.23881444800645, -1050.1938267573714, -168.82469384977594, -0.12800000607967377, 1.0240000486373901, -0.01600000075995922, 0.0, 0.0, 0.0, 0.0, 0.0, 1.7151012901990268E9, 0.0, 2024-05-07 12:01:30.199
90.0, 64.56563283503056, -199.1347130406648, -873.1656623547897, -75.47305105580017, -0.12800000607967377, 1.0240000486373901, -0.0, 0.0, 0.0, 0.0, 0.0, 0.0, 1.7151012902002952E9, 0.0, 2024-05-07 12:01:30.200
90.0, 8.751365896314383, -253.35204269830137, -935.8800447117537, -105.87095789564773, -0.12800000607967377, 1.0240000486373901, -0.0, 0.0, 0.0, 0.0, 0.0, 0.0, 1.7151012902003148E9, 0.0, 2024-05-07 12:01:30.200
91.0, -63.48106184788048, -325.1992607470602, -1003.4787364108488, -172.9498035009019, -0.12800000607967377, 1.008000047877431, -0.0, 0.0, 0.0, 0.0, 0.0, 0.0, 1.715101290228958E9, 0.0, 2024-05-07 12:01:30.228
91.0, 18.213312784209847, -235.00783341564238, -902.1648466112092, -110.16062314482406, -0.12800000607967377, 1.008000047877431, -0.0, 0.0, 0.0, 0.0, 0.0, 0.0, 1.7151012902289767E9, 0.0, 2024-05-07 12:01:30.228
92.0, 66.98534810636193, -183.18777962960303, -885.5409913081676, -67.84739504614845, -0.0800000037997961, 1.008000047877431, -0.0, 0.0, 0.0, 0.0, 0.0, 0.0, 1.7151012902291176E9, 0.0, 2024-05-07 12:01:30.229
92.0, -53.0243015717715, -305.1122580850497, -962.3660161979496, -148.13930719485506, -0.0800000037997961, 1.008000047877431, -0.0, 0.0, 0.0, 0.0, 0.0, 0.0, 1.715101290229136E9, 0.0, 2024-05-07 12:01:30.229
93.0, -33.53194300271571, -230.7742666658014, -999.7949349544942, -93.33481324417517, -0.0800000037997961, 1.008000047877431, -0.0, 0.0, 0.0, 0.0, 0.0, 0.0, 1.7151012902298937E9, 0.0, 2024-05-07 12:01:30.229
93.0, 105.79802984651178, -142.3667716132477, -819.6963126882911, -41.69801455596462, -0.0800000037997961, 1.008000047877431, -0.0, 0.0, 0.0, 0.0, 0.0, 0.0, 1.7151012902299004E9, 0.0, 2024-05-07 12:01:30.229
94.0, -22.731111930683255, -264.95695226080716, -957.6612220536917, -110.81884553702548, -0.0800000037997961, 1.008000047877431, -0.0, 0.0, 0.0, 0.0, 0.0, 0.0, 1.7151012902585387E9, 0.0, 2024-05-07 12:01:30.258
94.0, -41.606387007050216, -268.3079026211053, -975.8446156382561, -129.6679413137026, -0.0800000037997961, 1.008000047877431, -0.0, 0.0, 0.0, 0.0, 0.0, 0.0, 1.715101290258551E9, 0.0, 2024-05-07 12:01:30.258
95.0, 83.73636000789702, -161.17472849041224, -842.6892176158726, -25.421969948802143, -0.0800000037997961, 1.008000047877431, -0.0, 0.0, 0.0, 0.0, 0.0, 0.0, 1.7151012902589953E9, 0.0, 2024-05-07 12:01:30.258
95.0, 41.31841471046209, -202.1303729051724, -901.1737731229514, -69.26855702931061, -0.0800000037997961, 1.008000047877431, -0.0, 0.0, 0.0, 0.0, 0.0, 0.0, 1.7151012902590036E9, 0.0, 2024-05-07 12:01:30.259
96.0, -40.14782602433115, -278.0952208051458, -945.5776052968577, -125.95796055765823, -0.0800000037997961, 1.008000047877431, -0.0, 0.0, 0.0, 0.0, 0.0, 0.0, 1.7151012902602427E9, 0.0, 2024-05-07 12:01:30.260
96.0, 48.6897575231269, -189.63536715321243, -902.3555815089494, -86.68153122300282, -0.0800000037997961, 1.008000047877431, -0.0, 0.0, 0.0, 0.0, 0.0, 0.0, 1.7151012902602577E9, 0.0, 2024-05-07 12:01:30.260
97.0, 101.54950349684805, -152.82353188935667, -829.9473784668371, -40.97621386451647, -0.0800000037997961, 1.008000047877431, -0.0, 0.0, 0.0, 0.0, 0.0, 0.0, 1.7151012903486347E9, 0.0, 2024-05-07 12:01:30.348
97.0, -36.449064968153834, -287.5384681932628, -974.7637845510617, -141.8300959696062, -0.0800000037997961, 1.008000047877431, -0.0, 0.0, 0.0, 0.0, 0.0, 0.0, 1.7151012903486493E9, 0.0, 2024-05-07 12:01:30.348
98.0, 14.256498631089926, -264.25385106913745, -937.4246233934537, -125.03046536864713, -0.0800000037997961, 1.008000047877431, -0.0, 0.0, 0.0, 0.0, 0.0, 0.0, 1.7151012903490024E9, 0.0, 2024-05-07 12:01:30.349
98.0, 108.40848001558334, -131.96610983647406, -839.6524188518524, -20.982708701398224, -0.0800000037997961, 1.008000047877431, -0.0, 0.0, 0.0, 0.0, 0.0, 0.0, 1.7151012903490083E9, 0.0, 2024-05-07 12:01:30.349
99.0, 2.849803766235709, -234.87319701723754, -937.2899869950488, -92.27642155671492, -0.0800000037997961, 1.008000047877431, -0.0, 0.0, 0.0, 0.0, 0.0, 0.0, 1.7151012903496408E9, 0.0, 2024-05-07 12:01:30.349
99.0, -35.270996482111514, -238.91976876929402, -950.2150812419131, -113.22734110848978, -0.0800000037997961, 1.008000047877431, -0.0, 0.0, 0.0, 0.0, 0.0, 0.0, 1.7151012903496485E9, 0.0, 2024-05-07 12:01:30.349
100.0, 99.97874551545829, -134.9542899010703, -861.366277994588, -45.70344740850851, -0.0800000037997961, 1.008000047877431, -0.04800000227987766, 0.0, 0.0, 0.0, 0.0, 0.0, 1.7151012903503225E9, 0.0, 2024-05-07 12:01:30.350
100.0, 27.054436279460788, -213.67544406838715, -892.5757431248203, -68.48317803861573, -0.0800000037997961, 1.008000047877431, -0.04800000227987766, 0.0, 0.0, 0.0, 0.0, 0.0, 1.7151012903503287E9, 0.0, 2024-05-07 12:01:30.350
0.0, -66.35517496382818, -272.231057674624, -2.128003074787557, -132.78888782672584, -0.0800000037997961, 1.008000047877431, -0.04800000227987766, 0.0, 0.0, 0.0, 0.0, 0.0, 1.715101290351002E9, 0.0, 2024-05-07 12:01:30.351
1.0, 26.622477834578604, -199.4974833363667, 90.4158213287592, -77.90959587693214, -0.0800000037997961, 1.0240000486373901, -0.04800000227987766, 0.0, 0.0, 0.0, 0.0, 0.0, 1.715101290352538E9, 0.0, 2024-05-07 12:01:30.352
1.0, 87.79602140979841, -151.3649709066376, 129.64363196399063, -59.2138359984383, -0.0800000037997961, 1.0240000486373901, -0.04800000227987766, 0.0, 0.0, 0.0, 0.0, 0.0, 1.7151012903525689E9, 0.0, 2024-05-07 12:01:30.352
6.0, 199.72374728368595, -60.915490478277206, 228.78463988937438, 13.635675238445401, -0.0800000037997961, 1.0240000486373901, -0.04800000227987766, 0.0, 0.0, 0.0, 0.0, 0.0, 1.715101290408592E9, 0.0, 2024-05-07 12:01:30.408
6.0, 255.33605962479487, -23.897960716858506, 227.43079610541463, 32.776483211666346, -0.0800000037997961, 1.0240000486373901, -0.04800000227987766, 0.0, 0.0, 0.0, 0.0, 0.0, 1.715101290408604E9, 0.0, 2024-05-07 12:01:30.408
7.0, 112.35594441881403, -157.1169370384887, 147.46425525285304, -58.89968440216035, -0.0800000037997961, 1.0240000486373901, -0.04800000227987766, 0.0, 0.0, 0.0, 0.0, 0.0, 1.715101290409025E9, 0.0, 2024-05-07 12:01:30.409
7.0, 145.30446302844211, -107.53708332590759, 168.1496419077739, 0.2543131969869137, -0.0800000037997961, 1.0240000486373901, -0.04800000227987766, 0.0, 0.0, 0.0, 0.0, 0.0, 1.7151012904090335E9, 0.0, 2024-05-07 12:01:30.409
8.0, 273.35489761130884, -4.656175444833934, 282.9122119480744, 43.40901878569275, -0.0800000037997961, 1.0240000486373901, -0.04800000227987766, 0.0, 0.0, 0.0, 0.0, 0.0, 1.7151012904096332E9, 0.0, 2024-05-07 12:01:30.409
8.0, 148.88354728603736, -122.67993824649602, 142.53880701120943, -28.412019963376224, -0.0800000037997961, 1.0240000486373901, -0.04800000227987766, 0.0, 0.0, 0.0, 0.0, 0.0, 1.7151012904096396E9, 0.0, 2024-05-07 12:01:30.409
9.0, 121.82537110662088, -150.1121044214815, 159.19632141385227, -27.36484797578305, -0.0800000037997961, 1.0240000486373901, -0.04800000227987766, 0.0, 0.0, 0.0, 0.0, 0.0, 1.7151012904106455E9, 0.0, 2024-05-07 12:01:30.410
9.0, 249.51677529374138, -24.1223547141999, 244.3762828046456, 52.930804072879255, -0.0800000037997961, 1.0240000486373901, -0.04800000227987766, 0.0, 0.0, 0.0, 0.0, 0.0, 1.7151012904106748E9, 0.0, 2024-05-07 12:01:30.410
10.0, 195.72205433109775, -84.7835319954902, 173.7482721414417, 7.333943813107908, -0.0800000037997961, 1.0240000486373901, -0.06400000303983688, 0.0, 0.0, 0.0, 0.0, 0.0, 1.7151012904113224E9, 0.0, 2024-05-07 12:01:30.411
10.0, 112.01561352284625, -175.32650992274284, 119.91989207919687, -52.511935277841985, -0.0800000037997961, 1.0240000486373901, -0.06400000303983688, 0.0, 0.0, 0.0, 0.0, 0.0, 1.715101290411342E9, 0.0, 2024-05-07 12:01:30.411
11.0, 193.45567495794967, -71.8098190492019, 181.32156955171376, 1.8736898778006434, -0.0800000037997961, 1.0240000486373901, -0.06400000303983688, 0.0, 0.0, 0.0, 0.0, 0.0, 1.7151012904122052E9, 0.0, 2024-05-07 12:01:30.412
11.0, 235.09946096455678, -39.30634853430092, 248.09000346064568, 51.47224309016019, -0.0800000037997961, 1.0240000486373901, -0.06400000303983688, 0.0, 0.0, 0.0, 0.0, 0.0, 1.7151012904122195E9, 0.0, 2024-05-07 12:01:30.412
12.0, 110.70664853835478, -158.23890702519566, 106.3814542395994, -49.261962216347456, -0.12800000607967377, 1.0240000486373901, -0.06400000303983688, 0.0, 0.0, 0.0, 0.0, 0.0, 1.7151012904388468E9, 0.0, 2024-05-07 12:01:30.438
12.0, 167.0594610706903, -118.3902729973197, 164.75755264796317, -19.054790274240077, -0.12800000607967377, 1.0240000486373901, -0.06400000303983688, 0.0, 0.0, 0.0, 0.0, 0.0, 1.7151012904388585E9, 0.0, 2024-05-07 12:01:30.438
13.0, 288.90914152702317, 3.61648325715214, 280.62713307514787, 80.58362434525043, -0.12800000607967377, 1.0240000486373901, -0.06400000303983688, 0.0, 0.0, 0.0, 0.0, 0.0, 1.715101290439231E9, 0.0, 2024-05-07 12:01:30.439
13.0, 147.40628680353984, -117.15610601194203, 162.7080874722451, -2.4346748711541295, -0.12800000607967377, 1.0240000486373901, -0.06400000303983688, 0.0, 0.0, 0.0, 0.0, 0.0, 1.715101290439237E9, 0.0, 2024-05-07 12:01:30.439
14.0, 116.24918027268723, -111.88658697437495, 185.03903010766953, -19.855128864757717, -0.12800000607967377, 1.0240000486373901, -0.06400000303983688, 0.0, 0.0, 0.0, 0.0, 0.0, 1.715101290468701E9, 0.0, 2024-05-07 12:01:30.468
14.0, 275.2622465887107, -7.487279711291194, 250.12450903654099, 81.9636474289, -0.12800000607967377, 1.0240000486373901, -0.06400000303983688, 0.0, 0.0, 0.0, 0.0, 0.0, 1.7151012904687152E9, 0.0, 2024-05-07 12:01:30.468
15.0, 213.72967261774465, -66.76843390893191, 217.16103082709014, 33.83861479908228, -0.12800000607967377, 1.0240000486373901, -0.06400000303983688, 0.0, 0.0, 0.0, 0.0, 0.0, 1.715101290469109E9, 0.0, 2024-05-07 12:01:30.469
15.0, 136.84106942871585, -130.989995948039, 136.45772968325764, -35.626286977902055, -0.12800000607967377, 1.0240000486373901, -0.06400000303983688, 0.0, 0.0, 0.0, 0.0, 0.0, 1.7151012904691222E9, 0.0, 2024-05-07 12:01:30.469
16.0, 221.1608538297005, -50.514828701503575, 243.28797191753983, 18.994951874949038, -0.12800000607967377, 1.0240000486373901, -0.06400000303983688, 0.0, 0.0, 0.0, 0.0, 0.0, 1.71510129046979E9, 0.0, 2024-05-07 12:01:30.469
16.0, 277.1546359662898, -19.29040397144854, 264.85597496200353, 61.405417372472584, -0.12800000607967377, 1.0240000486373901, -0.06400000303983688, 0.0, 0.0, 0.0, 0.0, 0.0, 1.7151012904698E9, 0.0, 2024-05-07 12:01:30.469
17.0, 140.70064618298784, -146.2151286676526, 141.67115022148937, -37.05118886101991, -0.12800000607967377, 1.0240000486373901, -0.06400000303983688, 0.0, 0.0, 0.0, 0.0, 0.0, 1.7151012904707744E9, 0.0, 2024-05-07 12:01:30.470
17.0, 158.644686170388, -115.98551732581109, 183.1578604299575, 3.5529049579054117, -0.12800000607967377, 1.0240000486373901, -0.06400000303983688, 0.0, 0.0, 0.0, 0.0, 0.0, 1.7151012904708004E9, 0.0, 2024-05-07 12:01:30.470
18.0, 314.33298142580315, 16.743532101623714, 283.5816540401429, 66.94420920684934, -0.12800000607967377, 1.0240000486373901, -0.06400000303983688, 0.0, 0.0, 0.0, 0.0, 0.0, 1.7151012904985535E9, 0.0, 2024-05-07 12:01:30.498
18.0, 175.00674847653136, -115.43575203232467, 181.66938024759293, -8.994459393434227, -0.12800000607967377, 1.0240000486373901, -0.06400000303983688, 0.0, 0.0, 0.0, 0.0, 0.0, 1.7151012904985657E9, 0.0, 2024-05-07 12:01:30.498
19.0, 137.9742591152899, -109.73240459989756, 118.55856849532574, -37.84778755158186, -0.12800000607967377, 1.0240000486373901, -0.06400000303983688, 0.0, 0.0, 0.0, 0.0, 0.0, 1.7151012905586932E9, 0.0, 2024-05-07 12:01:30.558
19.0, 281.06657131994143, -7.367602912709117, 283.1066867457703, 73.57505182828754, -0.12800000607967377, 1.0240000486373901, -0.06400000303983688, 0.0, 0.0, 0.0, 0.0, 0.0, 1.7151012905587204E9, 0.0, 2024-05-07 12:01:30.558
20.0, 214.55245060799643, -79.40181595925242, 185.91416669730097, 12.89143514726311, -0.12800000607967377, 1.0240000486373901, -0.09600000455975533, 0.0, 0.0, 0.0, 0.0, 0.0, 1.7151012905592027E9, 0.0, 2024-05-07 12:01:30.559
