%OpenBCI Raw EXG Data
%Number of channels = 4
%Sample Rate = 200 Hz
%Board = OpenBCI_GUI$BoardGanglionNative
Sample Index, EXG Channel 0, EXG Channel 1, EXG Channel 2, EXG Channel 3, Accel Channel 0, Accel Channel 1, Accel Channel 2, Other, Other, Other, Other, Other, Timestamp, Other, Timestamp (Formatted)
0.0, 23.426733322441578, -189.1061713094823, 73.58066167822108, -69.88003067206591, 0.0, 0.0, 0.0, 0.0, 0.0, 0.0, 0.0, 0.0, 1.7151012740278432E9, 0.0, 2024-05-07 12:01:14.027
1.0, 85.34077708888799, -131.61268929066136, 145.40544032724574, -19.118368573486805, 0.0, 0.9760000463575125, 0.0, 0.0, 0.0, 0.0, 0.0, 0.0, 1.715101274028474E9, 0.0, 2024-05-07 12:01:14.028
1.0, -35.41685258038342, -257.20226970268413, -4.7702423934824765, -118.97743729036301, 0.0, 0.9760000463575125, 0.0, 0.0, 0.0, 0.0, 0.0, 0.0, 1.7151012740284874E9, 0.0, 2024-05-07 12:01:14.028
2.0, -88.45237385202199, -229.3474948327057, 11.393605215009302, -124.9089186200872, -0.1600000075995922, 0.9760000463575125, 0.0, 0.0, 0.0, 0.0, 0.0, 0.0, 1.7151012740575202E9, 0.0, 2024-05-07 12:01:14.057
2.0, 125.70925721060485, -109.28548655519262, 161.0980605413206, 0.12341669853776693, -0.1600000075995922, 0.9760000463575125, 0.0, 0.0, 0.0, 0.0, 0.0, 0.0, 1.7151012740575335E9, 0.0, 2024-05-07 12:01:14.057
3.0, 20.745225054211915, -231.17256601108238, 70.21849161805585, -98.43042693380266, -0.1600000075995922, 0.9760000463575125, 0.0, 0.0, 0.0, 0.0, 0.0, 0.0, 1.71510127405801E9, 0.0, 2024-05-07 12:01:14.058
3.0, -28.408280063420534, -262.8495186357759, 26.435482836794108, -107.85123492218554, -0.1600000075995922, 0.9760000463575125, 0.0, 0.0, 0.0, 0.0, 0.0, 0.0, 1.7151012740580184E9, 0.0, 2024-05-07 12:01:14.058
4.0, 114.67281244136393, -129.8960752109997, 171.34538641991094, -42.54136199597269, -0.1600000075995922, 0.9760000463575125, 0.0, 0.0, 0.0, 0.0, 0.0, 0.0, 1.7151012740587213E9, 0.0, 2024-05-07 12:01:14.058
4.0, 66.49168131221086, -178.37639833660796, 69.11896103108302, -50.952396996319294, -0.1600000075995922, 0.9760000463575125, 0.0, 0.0, 0.0, 0.0, 0.0, 0.0, 1.7151012740587287E9, 0.0, 2024-05-07 12:01:14.058
5.0, -50.19319730531424, -252.44885685900226, 12.070527106989175, -134.34094630833715, -0.1600000075995922, 0.9760000463575125, 0.0, 0.0, 0.0, 0.0, 0.0, 0.0, 1.715101274059729E9, 0.0, 2024-05-07 12:01:14.059
5.0, 21.80361674167216, -193.23128096060827, 35.837591325398535, -49.44147741422057, -0.1600000075995922, 0.9760000463575125, 0.0, 0.0, 0.0, 0.0, 0.0, 0.0, 1.7151012740597491E9, 0.0, 2024-05-07 12:01:14.059
6.0, 100.94737960398197, -120.16859542625025, 156.4269254966639, -14.682847226038575, -0.1600000075995922, 0.9760000463575125, 0.0, 0.0, 0.0, 0.0, 0.0, 0.0, 1.7151012740875604E9, 0.0, 2024-05-07 12:01:14.087
6.0, -46.37101955059916, -266.0620926977135, 13.727302787359804, -124.51248922478408, -0.1600000075995922, 0.9760000463575125, 0.0, 0.0, 0.0, 0.0, 0.0, 0.0, 1.715101274087576E9, 0.0, 2024-05-07 12:01:14.087
7.0, -39.39236623328179, -240.9524043952115, -57.78332426538691, -94.24173898342997, -0.1600000075995922, 0.9760000463575125, 0.0, 0.0, 0.0, 0.0, 0.0, 0.0, 1.7151012740882075E9, 0.0, 2024-05-07 12:01:14.088
7.0, 111.95016527362168, -107.79326647287235, 178.78404743177816, -21.575482844375074, -0.1600000075995922, 0.9760000463575125, 0.0, 0.0, 0.0, 0.0, 0.0, 0.0, 1.7151012740882175E9, 0.0, 2024-05-07 12:01:14.088
8.0, -20.09074256196618, -245.95639053592458, 16.70800305204466, -101.92349349241704, -0.1600000075995922, 0.9760000463575125, 0.0, 0.0, 0.0, 0.0, 0.0, 0.0, 1.7151012741177363E9, 0.0, 2024-05-07 12:01:14.117
8.0, -42.33940739836544, -258.56733318651095, 10.013582131359726, -114.45589824393392, -0.1600000075995922, 0.9760000463575125, 0.0, 0.0, 0.0, 0.0, 0.0, 0.0, 1.7151012741177597E9, 0.0, 2024-05-07 12:01:14.117
9.0, 94.82890327647328, -142.21904556499794, 98.98580207722262, -31.931265821680427, -0.1600000075995922, 0.9760000463575125, 0.0, 0.0, 0.0, 0.0, 0.0, 0.0, 1.715101274118126E9, 0.0, 2024-05-07 12:01:14.118
9.0, 49.85286640934646, -190.9200227879919, 142.89596745697781, -86.15607527922839, -0.1600000075995922, 0.9760000463575125, 0.0, 0.0, 0.0, 0.0, 0.0, 0.0, 1.7151012741181393E9, 0.0, 2024-05-07 12:01:14.118
10.0, -46.23638315219432, -255.74744861992076, -6.3783993744291365, -115.28615603409708, -0.1600000075995922, 0.9760000463575125, 0.20800000987946987, 0.0, 0.0, 0.0, 0.0, 0.0, 1.7151012741187704E9, 0.0, 2024-05-07 12:01:14.118
10.0, 10.509118875488639, -189.13235060917214, 98.35749888466671, -73.63863012753427, -0.1600000075995922, 0.9760000463575125, 0.20800000987946987, 0.0, 0.0, 0.0, 0.0, 0.0, 1.715101274118785E9, 0.0, 2024-05-07 12:01:14.118
11.0, 103.96921876817942, -145.98886472033337, 160.0957673531957, -21.33612924721092, -0.1600000075995922, 1.008000047877431, 0.20800000987946987, 0.0, 0.0, 0.0, 0.0, 0.0, 1.7151012741198523E9, 0.0, 2024-05-07 12:01:14.119
11.0, -10.04911118093878, -271.35779103497043, 50.08287025662139, -113.16937265917659, -0.1600000075995922, 1.008000047877431, 0.20800000987946987, 0.0, 0.0, 0.0, 0.0, 0.0, 1.7151012741198773E9, 0.0, 2024-05-07 12:01:14.119
12.0, 13.074690245091915, -237.21998423943296, 64.49644468585029, -85.92046158201993, -0.17600000835955143, 1.008000047877431, 0.20800000987946987, 0.0, 0.0, 0.0, 0.0, 0.0, 1.71510127414768E9, 0.0, 2024-05-07 12:01:14.147
12.0, 116.62504021823406, -114.11743729794398, 177.953789641615, -18.46388608124107, -0.17600000835955143, 1.008000047877431, 0.20800000987946987, 0.0, 0.0, 0.0, 0.0, 0.0, 1.7151012741477013E9, 0.0, 2024-05-07 12:01:14.147
13.0, -13.7104732375592, -248.51448210561648, 58.69585985457525, -120.85112716816366, -0.17600000835955143, 1.008000047877431, 0.20800000987946987, 0.0, 0.0, 0.0, 0.0, 0.0, 1.7151012741483788E9, 0.0, 2024-05-07 12:01:14.148
13.0, -36.94647166226059, -249.94686378864571, 43.3360907365568, -104.492804761976, -0.17600000835955143, 1.008000047877431, 0.20800000987946987, 0.0, 0.0, 0.0, 0.0, 0.0, 1.7151012741483953E9, 0.0, 2024-05-07 12:01:14.148
14.0, 70.31385906692594, -142.57433606078848, 148.85736798634753, -47.96047703176737, -0.17600000835955143, 1.008000047877431, 0.20800000987946987, 0.0, 0.0, 0.0, 0.0, 0.0, 1.715101274208099E9, 0.0, 2024-05-07 12:01:14.208
14.0, 8.46713349968195, -203.02607894456014, 47.928687882144004, -78.76229306682944, -0.17600000835955143, 1.008000047877431, 0.20800000987946987, 0.0, 0.0, 0.0, 0.0, 0.0, 1.7151012742081172E9, 0.0, 2024-05-07 12:01:14.208
15.0, -45.49962286092341, -265.93867599917576, 11.169211217667907, -146.34228526614606, -0.17600000835955143, 1.008000047877431, 0.20800000987946987, 0.0, 0.0, 0.0, 0.0, 0.0, 1.7151012742082627E9, 0.0, 2024-05-07 12:01:14.208
15.0, 64.6217313343659, -198.46714089857414, 102.75562123255804, -81.2979452367872, -0.17600000835955143, 1.008000047877431, 0.20800000987946987, 0.0, 0.0, 0.0, 0.0, 0.0, 1.7151012742082756E9, 0.0, 2024-05-07 12:01:14.208
16.0, 105.49135805014521, -155.5405692071654, 130.04941110918298, -38.36389374546707, -0.17600000835955143, 1.008000047877431, 0.20800000987946987, 0.0, 0.0, 0.0, 0.0, 0.0, 1.7151012742088487E9, 0.0, 2024-05-07 12:01:14.208
16.0, -27.00581758003682, -279.5893108374439, 23.56697957077995, -122.44432454928756, -0.17600000835955143, 1.008000047877431, 0.20800000987946987, 0.0, 0.0, 0.0, 0.0, 0.0, 1.7151012742088583E9, 0.0, 2024-05-07 12:01:14.208
17.0, -4.256006149575114, -240.92996499547735, 16.6930434522219, -134.475582706742, -0.17600000835955143, 1.008000047877431, 0.20800000987946987, 0.0, 0.0, 0.0, 0.0, 0.0, 1.7151012742094848E9, 0.0, 2024-05-07 12:01:14.209
17.0, 136.59984588157386, -122.58831069758162, 188.57884541573003, -0.7891188906505704, -0.17600000835955143, 1.008000047877431, 0.20800000987946987, 0.0, 0.0, 0.0, 0.0, 0.0, 1.7151012742094955E9, 0.0, 2024-05-07 12:01:14.209
18.0, 0.3665101956576109, -248.64163870410994, 38.45552129438147, -97.7497651418671, -0.17600000835955143, 1.008000047877431, 0.20800000987946987, 0.0, 0.0, 0.0, 0.0, 0.0, 1.7151012742101912E9, 0.0, 2024-05-07 12:01:14.210
18.0, -54.550180753692985, -275.3744435873814, -35.6281569278799, -90.77485172450542, -0.17600000835955143, 1.008000047877431, 0.20800000987946987, 0.0, 0.0, 0.0, 0.0, 0.0, 1.7151012742102013E9, 0.0, 2024-05-07 12:01:14.210
19.0, 91.27599831856787, -146.02626371989027, 130.374782405328, -25.835228893905878, -0.17600000835955143, 1.008000047877431, 0.20800000987946987, 0.0, 0.0, 0.0, 0.0, 0.0, 1.7151012742115004E9, 0.0, 2024-05-07 12:01:14.211
19.0, 41.194998011924326, -196.406456022989, 51.58257013885304, -60.545240382663906, -0.17600000835955143, 1.008000047877431, 0.20800000987946987, 0.0, 0.0, 0.0, 0.0, 0.0, 1.7151012742115335E9, 0.0, 2024-05-07 12:01:14.211
20.0, -24.17845321353525, -280.87209652224556, 40.740600167308, -119.73663698136806, -0.17600000835955143, 1.008000047877431, 0.20800000987946987, 0.0, 0.0, 0.0, 0.0, 0.0, 1.715101274211805E9, 0.0, 2024-05-07 12:01:14.211
20.0, 58.83610610291362, -204.58561722608283, 81.47933038463816, -62.72560205683112, -0.17600000835955143, 1.008000047877431, 0.20800000987946987, 0.0, 0.0, 0.0, 0.0, 0.0, 1.715101274211815E9, 0.0, 2024-05-07 12:01:14.211
21.0, 66.94794910680503, -147.84011519839987, 119.36825683573261, -43.5399152841419, -0.17600000835955143, 1.0240000486373901, 0.20800000987946987, 0.0, 0.0, 0.0, 0.0, 0.0, 1.7151012742376716E9, 0.0, 2024-05-07 12:01:14.237
21.0, -56.68566362839192, -286.69886065321043, -17.05955364787951, -121.00820296630263, -0.17600000835955143, 1.0240000486373901, 0.20800000987946987, 0.0, 0.0, 0.0, 0.0, 0.0, 1.7151012742376933E9, 0.0, 2024-05-07 12:01:14.237
22.0, -0.1047171987593174, -257.49398189922795, 16.779061151202768, -70.90476325992495, -0.144000006839633, 1.0240000486373901, 0.20800000987946987, 0.0, 0.0, 0.0, 0.0, 0.0, 1.7151012742383113E9, 0.0, 2024-05-07 12:01:14.238
22.0, 114.17914564721286, -121.91512870555744, 137.72742571821436, -22.57029623258859, -0.144000006839633, 1.0240000486373901, 0.20800000987946987, 0.0, 0.0, 0.0, 0.0, 0.0, 1.7151012742383277E9, 0.0, 2024-05-07 12:01:14.238
23.0, -6.877676018513739, -251.1361519745551, 8.151111953426152, -119.25792978703976, -0.144000006839633, 1.0240000486373901, 0.20800000987946987, 0.0, 0.0, 0.0, 0.0, 0.0, 1.7151012742676804E9, 0.0, 2024-05-07 12:01:14.267
23.0, -29.00666405633092, -258.97872218163684, 22.246794886421412, -125.85511330887675, -0.144000006839633, 1.0240000486373901, 0.20800000987946987, 0.0, 0.0, 0.0, 0.0, 0.0, 1.715101274267694E9, 0.0, 2024-05-07 12:01:14.267
24.0, 108.33368201646954, -144.8294957340695, 118.0742514510639, -31.635813725180924, -0.144000006839633, 1.0240000486373901, 0.20800000987946987, 0.0, 0.0, 0.0, 0.0, 0.0, 1.7151012742680788E9, 0.0, 2024-05-07 12:01:14.268
24.0, 34.18642549496144, -207.65233518974856, 94.75223532738164, -63.12951125204563, -0.144000006839633, 1.0240000486373901, 0.20800000987946987, 0.0, 0.0, 0.0, 0.0, 0.0, 1.7151012742680962E9, 0.0, 2024-05-07 12:01:14.268
25.0, -8.04826470464468, -268.39205037010834, -27.314359326381236, -135.2908808970824, -0.144000006839633, 1.0240000486373901, 0.20800000987946987, 0.0, 0.0, 0.0, 0.0, 0.0, 1.7151012742688909E9, 0.0, 2024-05-07 12:01:14.268
25.0, 10.258545578457415, -208.88276227517053, 64.32440928788856, -72.40072324220091, -0.144000006839633, 1.0240000486373901, 0.20800000987946987, 0.0, 0.0, 0.0, 0.0, 0.0, 1.7151012742689083E9, 0.0, 2024-05-07 12:01:14.268
26.0, 86.35428997687995, -142.91092705680057, 126.20479395473376, -48.71967672277242, -0.144000006839633, 1.0240000486373901, 0.20800000987946987, 0.0, 0.0, 0.0, 0.0, 0.0, 1.7151012742697413E9, 0.0, 2024-05-07 12:01:14.269
26.0, -37.8328279517591, -255.23134242603555, 15.49253556644544, -120.76884936913848, -0.144000006839633, 1.0240000486373901, 0.20800000987946987, 0.0, 0.0, 0.0, 0.0, 0.0, 1.7151012742697568E9, 0.0, 2024-05-07 12:01:14.269
27.0, -8.123062703758478, -210.0496110613458, 11.023355119396001, -136.2856942852959, -0.144000006839633, 1.0240000486373901, 0.20800000987946987, 0.0, 0.0, 0.0, 0.0, 0.0, 1.7151012742976863E9, 0.0, 2024-05-07 12:01:14.297
27.0, 118.0200229017064, -109.775413449388, 152.74686394026503, -6.552304722368717, -0.144000006839633, 1.0240000486373901, 0.20800000987946987, 0.0, 0.0, 0.0, 0.0, 0.0, 1.715101274297713E9, 0.0, 2024-05-07 12:01:14.297
28.0, -50.22685640491545, -240.08474760549143, 57.899261164013296, -115.51428993139416, -0.144000006839633, 1.0240000486373901, 0.20800000987946987, 0.0, 0.0, 0.0, 0.0, 0.0, 1.715101274298296E9, 0.0, 2024-05-07 12:01:14.298
28.0, -125.26420911587775, -262.4680488402955, -47.102169991936535, -126.05706790648401, -0.144000006839633, 1.0240000486373901, 0.20800000987946987, 0.0, 0.0, 0.0, 0.0, 0.0, 1.7151012742983072E9, 0.0, 2024-05-07 12:01:14.298
29.0, 70.33255856670439, -121.29430531291291, 160.7577296453528, -28.823408958502114, -0.144000006839633, 1.0240000486373901, 0.20800000987946987, 0.0, 0.0, 0.0, 0.0, 0.0, 1.7151012743279817E9, 0.0, 2024-05-07 12:01:14.327
29.0, -1.3201846843585372, -181.38701780093834, 45.29579831333831, -72.146410045214, -0.144000006839633, 1.0240000486373901, 0.20800000987946987, 0.0, 0.0, 0.0, 0.0, 0.0, 1.7151012743279934E9, 0.0, 2024-05-07 12:01:14.327
30.0, -56.805340426974, -258.4027775884606, 37.7038014032878, -112.76546346396208, -0.144000006839633, 1.0240000486373901, 0.19200000911951065, 0.0, 0.0, 0.0, 0.0, 0.0, 1.715101274328097E9, 0.0, 2024-05-07 12:01:14.328
30.0, 43.678291582502425, -182.16491699172184, 82.14129267679527, -56.62208532914519, -0.144000006839633, 1.0240000486373901, 0.19200000911951065, 0.0, 0.0, 0.0, 0.0, 0.0, 1.7151012743281112E9, 0.0, 2024-05-07 12:01:14.328
31.0, 96.8260098528117, -130.8235704000108, 163.86558650853112, -19.612035367637873, -0.144000006839633, 1.0240000486373901, 0.19200000911951065, 0.0, 0.0, 0.0, 0.0, 0.0, 1.7151012743286257E9, 0.0, 2024-05-07 12:01:14.328
31.0, -24.4926048098132, -252.41519775940105, 6.22132357629016, -124.04500173032284, -0.144000006839633, 1.0240000486373901, 0.19200000911951065, 0.0, 0.0, 0.0, 0.0, 0.0, 1.715101274328636E9, 0.0, 2024-05-07 12:01:14.328
32.0, -21.201492848806083, -202.83160414686427, 61.27265092404559, -66.94046930689365, -0.11200000531971455, 1.0240000486373901, 0.19200000911951065, 0.0, 0.0, 0.0, 0.0, 0.0, 1.715101274329608E9, 0.0, 2024-05-07 12:01:14.329
32.0, 114.73265084065497, -110.2915196432732, 160.55951494770125, -18.17965368460864, -0.11200000531971455, 1.0240000486373901, 0.19200000911951065, 0.0, 0.0, 0.0, 0.0, 0.0, 1.7151012743296192E9, 0.0, 2024-05-07 12:01:14.329
33.0, -19.181946872733533, -245.63101923977956, 45.041485116351396, -89.61548273824155, -0.11200000531971455, 1.0240000486373901, 0.19200000911951065, 0.0, 0.0, 0.0, 0.0, 0.0, 1.7151012743577433E9, 0.0, 2024-05-07 12:01:14.357
33.0, -24.406587110832334, -250.0291415876709, 19.778460915666074, -106.6058482369408, -0.11200000531971455, 1.0240000486373901, 0.19200000911951065, 0.0, 0.0, 0.0, 0.0, 0.0, 1.7151012743577664E9, 0.0, 2024-05-07 12:01:14.357
34.0, 59.808480091392994, -126.11877625575289, 134.8215234526433, -17.427933793514967, -0.11200000531971455, 1.0240000486373901, 0.19200000911951065, 0.0, 0.0, 0.0, 0.0, 0.0, 1.715101274358457E9, 0.0, 2024-05-07 12:01:14.358
34.0, 14.821223524399102, -200.0416387799196, 87.27617531595752, -48.42796452622861, -0.11200000531971455, 1.0240000486373901, 0.19200000911951065, 0.0, 0.0, 0.0, 0.0, 0.0, 1.7151012743584714E9, 0.0, 2024-05-07 12:01:14.358
35.0, -62.576006058603525, -258.8553054830991, -39.786925678607076, -131.6220390405506, -0.11200000531971455, 1.0240000486373901, 0.19200000911951065, 0.0, 0.0, 0.0, 0.0, 0.0, 1.7151012743880148E9, 0.0, 2024-05-07 12:01:14.388
35.0, 34.94936508592218, -184.64821056229994, 116.0734049747698, -52.61291257664561, -0.11200000531971455, 1.0240000486373901, 0.19200000911951065, 0.0, 0.0, 0.0, 0.0, 0.0, 1.7151012743880465E9, 0.0, 2024-05-07 12:01:14.388
36.0, 90.44200062844902, -141.09707557829097, 113.88182360073552, -22.20004613697529, -0.11200000531971455, 1.0240000486373901, 0.19200000911951065, 0.0, 0.0, 0.0, 0.0, 0.0, 1.7151012743881023E9, 0.0, 2024-05-07 12:01:14.388
36.0, -47.0591611424461, -253.00236205244437, 55.62914189090952, -95.00467857439071, -0.11200000531971455, 1.0240000486373901, 0.19200000911951065, 0.0, 0.0, 0.0, 0.0, 0.0, 1.7151012743881147E9, 0.0, 2024-05-07 12:01:14.388
37.0, -2.0382454758509994, -209.06975727295503, 29.61065789917484, -118.77922259271145, -0.11200000531971455, 1.0240000486373901, 0.19200000911951065, 0.0, 0.0, 0.0, 0.0, 0.0, 1.7151012743887196E9, 0.0, 2024-05-07 12:01:14.388
37.0, 127.48196978960186, -102.49382823565975, 181.53661379916593, -2.9171219654381275, -0.11200000531971455, 1.0240000486373901, 0.19200000911951065, 0.0, 0.0, 0.0, 0.0, 0.0, 1.715101274388735E9, 0.0, 2024-05-07 12:01:14.388
38.0, -35.12514038383961, -229.235297834035, 19.93927661376074, -109.04426300805062, -0.11200000531971455, 1.0240000486373901, 0.19200000911951065, 0.0, 0.0, 0.0, 0.0, 0.0, 1.7151012743897748E9, 0.0, 2024-05-07 12:01:14.389
38.0, -55.51881484221667, -255.63151172129437, -8.25208925222978, -79.39433615934104, -0.11200000531971455, 1.0240000486373901, 0.19200000911951065, 0.0, 0.0, 0.0, 0.0, 0.0, 1.7151012743897922E9, 0.0, 2024-05-07 12:01:14.389
39.0, 91.55649081524462, -145.5363368256949, 129.62306251423433, -28.95056555699557, -0.11200000531971455, 1.0240000486373901, 0.19200000911951065, 0.0, 0.0, 0.0, 0.0, 0.0, 1.715101274417673E9, 0.0, 2024-05-07 12:01:14.417
39.0, 34.95310498587787, -194.42430904647335, 117.36367045948282, -45.44352436158806, -0.11200000531971455, 1.0240000486373901, 0.19200000911951065, 0.0, 0.0, 0.0, 0.0, 0.0, 1.715101274417693E9, 0.0, 2024-05-07 12:01:14.417
40.0, -48.846833321265876, -287.51041894359514, -3.9325048034079373, -120.18916487600654, -0.11200000531971455, 1.0240000486373901, 0.19200000911951065, 0.0, 0.0, 0.0, 0.0, 0.0, 1.7151012744185014E9, 0.0, 2024-05-07 12:01:14.418
40.0, -1.7240938795730472, -182.8829777832143, -19.05292032426223, -69.52848007623106, -0.11200000531971455, 1.0240000486373901, 0.19200000911951065, 0.0, 0.0, 0.0, 0.0, 0.0, 1.71510127441852E9, 0.0, 2024-05-07 12:01:14.418
41.0, 86.7469794722274, -157.1711655878462, 186.5106807402335, -25.82026929408312, -0.11200000531971455, 0.9920000471174717, 0.19200000911951065, 0.0, 0.0, 0.0, 0.0, 0.0, 1.7151012744475925E9, 0.0, 2024-05-07 12:01:14.447
41.0, -54.972789448685944, -273.594251208473, 5.671558282803744, -114.67281244136393, -0.11200000531971455, 0.9920000471174717, 0.19200000911951065, 0.0, 0.0, 0.0, 0.0, 0.0, 1.7151012744476106E9, 0.0, 2024-05-07 12:01:14.447
42.0, -28.688772560097277, -248.0282951113768, 56.24622538359836, -103.1614003777504, -0.11200000531971455, 0.9920000471174717, 0.19200000911951065, 0.0, 0.0, 0.0, 0.0, 0.0, 1.7151012744483216E9, 0.0, 2024-05-07 12:01:14.448
42.0, 122.56774124782532, -109.65573665080592, 165.57098088832572, -21.407187346369028, -0.11200000531971455, 0.9920000471174717, 0.19200000911951065, 0.0, 0.0, 0.0, 0.0, 0.0, 1.7151012744483352E9, 0.0, 2024-05-07 12:01:14.448
43.0, -20.52457095682621, -244.80824124952778, 73.87611377472058, -114.43345884419978, -0.11200000531971455, 0.9920000471174717, 0.19200000911951065, 0.0, 0.0, 0.0, 0.0, 0.0, 1.715101274448818E9, 0.0, 2024-05-07 12:01:14.448
43.0, -71.59290485177189, -251.27826817287132, -34.41642934223637, -124.41151192598045, -0.11200000531971455, 0.9920000471174717, 0.19200000911951065, 0.0, 0.0, 0.0, 0.0, 0.0, 1.7151012744488316E9, 0.0, 2024-05-07 12:01:14.448
44.0, 93.75181208923459, -122.04976510396227, 166.96970347175375, -21.111735249869525, -0.11200000531971455, 0.9920000471174717, 0.19200000911951065, 0.0, 0.0, 0.0, 0.0, 0.0, 1.7151012744500833E9, 0.0, 2024-05-07 12:01:14.450
44.0, 31.03742973227054, -197.69672150770202, 104.48719491204247, -77.88341657724231, -0.11200000531971455, 0.9920000471174717, 0.19200000911951065, 0.0, 0.0, 0.0, 0.0, 0.0, 1.715101274450102E9, 0.0, 2024-05-07 12:01:14.450
45.0, -56.85395912639797, -282.3680565045215, -0.17390534793958068, -118.07612140104175, -0.11200000531971455, 0.9920000471174717, 0.19200000911951065, 0.0, 0.0, 0.0, 0.0, 0.0, 1.715101274477925E9, 0.0, 2024-05-07 12:01:14.477
45.0, 32.357614416629076, -153.07223523641005, 109.23312795581296, -60.76215458009392, -0.11200000531971455, 0.9920000471174717, 0.19200000911951065, 0.0, 0.0, 0.0, 0.0, 0.0, 1.7151012744779503E9, 0.0, 2024-05-07 12:01:14.477
46.0, 71.49940735287964, -138.04157731449232, 99.71508256858215, -49.63595221191645, -0.11200000531971455, 0.9920000471174717, 0.19200000911951065, 0.0, 0.0, 0.0, 0.0, 0.0, 1.7151012744782336E9, 0.0, 2024-05-07 12:01:14.478
46.0, -47.9118583323434, -259.3302727774717, 33.97886104742065, -131.3228470440954, -0.11200000531971455, 0.9920000471174717, 0.19200000911951065, 0.0, 0.0, 0.0, 0.0, 0.0, 1.7151012744782412E9, 0.0, 2024-05-07 12:01:14.478
47.0, -56.592166129499674, -231.36704080877826, 17.212889546062797, -141.772127520293, -0.11200000531971455, 0.9920000471174717, 0.19200000911951065, 0.0, 0.0, 0.0, 0.0, 0.0, 1.7151012745076523E9, 0.0, 2024-05-07 12:01:14.507
47.0, 112.61586746573448, -117.71148115536198, 171.6520582162775, -17.72338589001447, -0.11200000531971455, 0.9920000471174717, 0.19200000911951065, 0.0, 0.0, 0.0, 0.0, 0.0, 1.7151012745076687E9, 0.0, 2024-05-07 12:01:14.507
48.0, -31.02247013244778, -248.9931892999448, 27.303139626514167, -99.91890711616725, -0.11200000531971455, 0.9920000471174717, 0.19200000911951065, 0.0, 0.0, 0.0, 0.0, 0.0, 1.7151012745080144E9, 0.0, 2024-05-07 12:01:14.508
48.0, -52.41095797903836, -278.38506305171177, -1.1761985360644758, -127.44083089008927, -0.11200000531971455, 0.9920000471174717, 0.19200000911951065, 0.0, 0.0, 0.0, 0.0, 0.0, 1.7151012745080235E9, 0.0, 2024-05-07 12:01:14.508
49.0, 93.81165048852563, -138.1949132126756, 156.93555189063773, -26.63182758446783, -0.11200000531971455, 0.9920000471174717, 0.19200000911951065, 0.0, 0.0, 0.0, 0.0, 0.0, 1.7151012745089345E9, 0.0, 2024-05-07 12:01:14.508
49.0, 57.6580376168713, -199.4133355873637, 71.82664859900251, -70.14930346887559, -0.11200000531971455, 0.9920000471174717, 0.19200000911951065, 0.0, 0.0, 0.0, 0.0, 0.0, 1.7151012745089478E9, 0.0, 2024-05-07 12:01:14.508
50.0, -53.91813766118139, -310.25275057414547, 17.92721043759957, -133.05442072357982, -0.11200000531971455, 0.9920000471174717, 0.20800000987946987, 0.0, 0.0, 0.0, 0.0, 0.0, 1.7151012745381105E9, 0.0, 2024-05-07 12:01:14.538
50.0, 57.15689102280885, -160.99708324251696, 82.71349737001583, -41.86070020403713, -0.11200000531971455, 0.9920000471174717, 0.20800000987946987, 0.0, 0.0, 0.0, 0.0, 0.0, 1.7151012745381424E9, 0.0, 2024-05-07 12:01:14.538
51.0, 114.8336281394586, -147.0098574082367, 168.6863175514154, -20.244078460149467, -0.11200000531971455, 1.0240000486373901, 0.20800000987946987, 0.0, 0.0, 0.0, 0.0, 0.0, 1.7151012745382044E9, 0.0, 2024-05-07 12:01:14.538
51.0, -15.243832219392061, -258.11854519182816, 23.817552867811173, -124.66956502292305, -0.11200000531971455, 1.0240000486373901, 0.20800000987946987, 0.0, 0.0, 0.0, 0.0, 0.0, 1.71510127453821E9, 0.0, 2024-05-07 12:01:14.538
52.0, 19.892527864314616, -227.87397425016388, 94.49044233048335, -60.186209986917675, -0.1600000075995922, 1.0240000486373901, 0.20800000987946987, 0.0, 0.0, 0.0, 0.0, 0.0, 1.7151012745389311E9, 0.0, 2024-05-07 12:01:14.538
52.0, 130.61226605251431, -99.44580977177247, 161.84978043241426, -10.340823377482593, -0.1600000075995922, 1.0240000486373901, 0.20800000987946987, 0.0, 0.0, 0.0, 0.0, 0.0, 1.7151012745389433E9, 0.0, 2024-05-07 12:01:14.538
53.0, -12.86899574752897, -228.4947976428084, 18.880884926300496, -88.91612144652754, -0.1600000075995922, 1.0240000486373901, 0.20800000987946987, 0.0, 0.0, 0.0, 0.0, 0.0, 1.7151012745396688E9, 0.0, 2024-05-07 12:01:14.539
53.0, -77.53934578131884, -265.16451670834795, -58.43032695772126, -165.04926484450698, -0.1600000075995922, 1.0240000486373901, 0.20800000987946987, 0.0, 0.0, 0.0, 0.0, 0.0, 1.715101274539678E9, 0.0, 2024-05-07 12:01:14.539
54.0, 100.46493250969797, -126.72837994853035, 117.59928415669128, -19.35398227069527, -0.1600000075995922, 1.0240000486373901, 0.20800000987946987, 0.0, 0.0, 0.0, 0.0, 0.0, 1.7151012745685527E9, 0.0, 2024-05-07 12:01:14.568
54.0, 8.919661394320428, -190.1496033971198, 121.56357810972258, -75.43004220630974, -0.1600000075995922, 1.0240000486373901, 0.20800000987946987, 0.0, 0.0, 0.0, 0.0, 0.0, 1.7151012745686212E9, 0.0, 2024-05-07 12:01:14.568
55.0, -44.426271573640406, -273.1940819132142, -8.521362049039453, -124.44517102558166, -0.1600000075995922, 1.0240000486373901, 0.20800000987946987, 0.0, 0.0, 0.0, 0.0, 0.0, 1.7151012745689209E9, 0.0, 2024-05-07 12:01:14.568
55.0, 5.968880329281092, -163.69729101052508, 86.52445542486385, -87.97366665769368, -0.1600000075995922, 1.0240000486373901, 0.20800000987946987, 0.0, 0.0, 0.0, 0.0, 0.0, 1.715101274568931E9, 0.0, 2024-05-07 12:01:14.568
56.0, 63.26414765045047, -155.85472080344334, 88.30838770372793, -41.51288950815797, -0.1600000075995922, 1.0240000486373901, 0.20800000987946987, 0.0, 0.0, 0.0, 0.0, 0.0, 1.7151012745975595E9, 0.0, 2024-05-07 12:01:14.597
56.0, -21.085555950179696, -263.13001113245264, 26.039053441490978, -125.27916871570051, -0.1600000075995922, 1.0240000486373901, 0.20800000987946987, 0.0, 0.0, 0.0, 0.0, 0.0, 1.7151012745975723E9, 0.0, 2024-05-07 12:01:14.597
57.0, -1.2528664851561189, -250.84817967796698, -2.4290650212205946, -85.18370129074901, -0.1600000075995922, 1.0240000486373901, 0.20800000987946987, 0.0, 0.0, 0.0, 0.0, 0.0, 1.7151012745980191E9, 0.0, 2024-05-07 12:01:14.598
57.0, 126.47593670152128, -115.44884168216959, 175.93424366554245, -13.403801441192627, -0.1600000075995922, 1.0240000486373901, 0.20800000987946987, 0.0, 0.0, 0.0, 0.0, 0.0, 1.7151012745980263E9, 0.0, 2024-05-07 12:01:14.598
58.0, -0.9761138884350657, -249.01188879972324, 86.79746812162921, -108.06066931970417, -0.1600000075995922, 1.0240000486373901, 0.20800000987946987, 0.0, 0.0, 0.0, 0.0, 0.0, 1.7151012745986829E9, 0.0, 2024-05-07 12:01:14.598
58.0, -48.64861862361431, -260.00719466945156, -38.0366524993442, -87.17706796713173, -0.1600000075995922, 1.0240000486373901, 0.20800000987946987, 0.0, 0.0, 0.0, 0.0, 0.0, 1.7151012745986888E9, 0.0, 2024-05-07 12:01:14.598
59.0, 108.13920721877366, -139.2720043999143, 200.25107317743823, -27.076875679194927, -0.1600000075995922, 1.0240000486373901, 0.20800000987946987, 0.0, 0.0, 0.0, 0.0, 0.0, 1.71510127459954E9, 0.0, 2024-05-07 12:01:14.599
59.0, 0.29171219654381275, -205.17652141908184, 76.32200834574178, -86.85169667098671, -0.1600000075995922, 1.0240000486373901, 0.20800000987946987, 0.0, 0.0, 0.0, 0.0, 0.0, 1.7151012745995457E9, 0.0, 2024-05-07 12:01:14.599
60.0, -97.74602524191141, -284.98224657354876, 18.3610388324596, -153.5902113802731, -0.1600000075995922, 1.0240000486373901, 0.19200000911951065, 0.0, 0.0, 0.0, 0.0, 0.0, 1.715101274627879E9, 0.0, 2024-05-07 12:01:14.627
60.0, 13.115829144604504, -193.37713705888018, 126.77325874799863, -75.0336128110066, -0.1600000075995922, 1.0240000486373901, 0.19200000911951065, 0.0, 0.0, 0.0, 0.0, 0.0, 1.715101274627894E9, 0.0, 2024-05-07 12:01:14.627
61.0, 96.34730265848339, -139.25704480009153, 142.6453941599466, -66.02419381774962, -0.1600000075995922, 1.008000047877431, 0.19200000911951065, 0.0, 0.0, 0.0, 0.0, 0.0, 1.7151012746282647E9, 0.0, 2024-05-07 12:01:14.628
61.0, -15.449526716955006, -275.7521734829061, 45.23222001409158, -123.41669853776693, -0.1600000075995922, 1.008000047877431, 0.19200000911951065, 0.0, 0.0, 0.0, 0.0, 0.0, 1.7151012746282783E9, 0.0, 2024-05-07 12:01:14.628
62.0, -9.65642168559134, -236.65525934612378, -40.93507496500388, -92.66724110208452, -0.12800000607967377, 1.008000047877431, 0.19200000911951065, 0.0, 0.0, 0.0, 0.0, 0.0, 1.7151012746577349E9, 0.0, 2024-05-07 12:01:14.657
62.0, 147.45303555298597, -110.72160813817754, -271.89072677865624, -8.657868397422135, -0.12800000607967377, 1.008000047877431, 0.19200000911951065, 0.0, 0.0, 0.0, 0.0, 0.0, 1.7151012746577525E9, 0.0, 2024-05-07 12:01:14.657
63.0, -0.8302577901631594, -240.67191189853474, -450.5494875619188, -123.427918237634, -0.12800000607967377, 1.008000047877431, 0.19200000911951065, 0.0, 0.0, 0.0, 0.0, 0.0, 1.7151012746581876E9, 0.0, 2024-05-07 12:01:14.658
63.0, -58.514474706724286, -282.6672485009767, -435.67216553818434, -138.63435145746917, -0.12800000607967377, 1.008000047877431, 0.19200000911951065, 0.0, 0.0, 0.0, 0.0, 0.0, 1.7151012746582048E9, 0.0, 2024-05-07 12:01:14.658
64.0, 128.88443227298558, -130.70015370147303, -351.26636343821883, -37.40647935681045, -0.12800000607967377, 1.008000047877431, 0.19200000911951065, 0.0, 0.0, 0.0, 0.0, 0.0, 1.715101274658905E9, 0.0, 2024-05-07 12:01:14.658
64.0, 42.13745280075818, -199.4806537865661, -388.50454729702324, -63.331465849652886, -0.12800000607967377, 1.008000047877431, 0.19200000911951065, 0.0, 0.0, 0.0, 0.0, 0.0, 1.7151012746589139E9, 0.0, 2024-05-07 12:01:14.658
65.0, -81.49242003448308, -275.6362365842797, -499.6132350806147, -150.9947208110243, -0.12800000607967377, 1.008000047877431, 0.19200000911951065, 0.0, 0.0, 0.0, 0.0, 0.0, 1.7151012746597269E9, 0.0, 2024-05-07 12:01:14.659
65.0, 61.371758272871375, -170.11121943453327, -401.2239470463246, -68.78423998504877, -0.12800000607967377, 1.008000047877431, 0.19200000911951065, 0.0, 0.0, 0.0, 0.0, 0.0, 1.7151012746597383E9, 0.0, 2024-05-07 12:01:14.659
66.0, 97.58894944377244, -148.74891088763252, -372.1798839904368, -53.22625616937876, -0.12800000607967377, 1.008000047877431, 0.19200000911951065, 0.0, 0.0, 0.0, 0.0, 0.0, 1.715101274687612E9, 0.0, 2024-05-07 12:01:14.687
66.0, -41.16133891232312, -257.8717117947526, -493.09832935780287, -112.21195827051997, -0.12800000607967377, 1.008000047877431, 0.19200000911951065, 0.0, 0.0, 0.0, 0.0, 0.0, 1.7151012746876247E9, 0.0, 2024-05-07 12:01:14.687
67.0, 11.103762968443334, -205.1204229197465, -480.13957601133734, -118.34913409780711, -0.12800000607967377, 1.008000047877431, 0.19200000911951065, 0.0, 0.0, 0.0, 0.0, 0.0, 1.715101274688294E9, 0.0, 2024-05-07 12:01:14.688
67.0, 112.64578666538, -105.80363969644532, -334.9267405318096, -17.038984198123217, -0.12800000607967377, 1.008000047877431, 0.19200000911951065, 0.0, 0.0, 0.0, 0.0, 0.0, 1.7151012746883054E9, 0.0, 2024-05-07 12:01:14.688
68.0, -21.575482844375074, -251.72331626759842, -433.1589527679607, -124.95753731951118, -0.12800000607967377, 1.008000047877431, 0.19200000911951065, 0.0, 0.0, 0.0, 0.0, 0.0, 1.7151012747175908E9, 0.0, 2024-05-07 12:01:14.717
68.0, -52.553074177354574, -266.12567099696025, -476.7474867515266, -139.0980990519747, -0.12800000607967377, 1.008000047877431, 0.19200000911951065, 0.0, 0.0, 0.0, 0.0, 0.0, 1.7151012747176027E9, 0.0, 2024-05-07 12:01:14.717
69.0, 118.99613679014146, -134.3465561582707, -315.8083719583228, -21.107995349913836, -0.12800000607967377, 1.008000047877431, 0.19200000911951065, 0.0, 0.0, 0.0, 0.0, 0.0, 1.715101274718079E9, 0.0, 2024-05-07 12:01:14.718
69.0, 15.535544415935874, -207.3718426930718, -378.2908805180341, -68.30927269067615, -0.12800000607967377, 1.008000047877431, 0.19200000911951065, 0.0, 0.0, 0.0, 0.0, 0.0, 1.7151012747180872E9, 0.0, 2024-05-07 12:01:14.718
70.0, -50.57092720083892, -271.5821850323118, -553.6211303407326, -132.7664484269917, -0.12800000607967377, 1.008000047877431, 0.1600000075995922, 0.0, 0.0, 0.0, 0.0, 0.0, 1.715101274718811E9, 0.0, 2024-05-07 12:01:14.718
70.0, 42.417945297434926, -177.15345105109736, -393.343977839686, -52.35111957974732, -0.12800000607967377, 1.008000047877431, 0.1600000075995922, 0.0, 0.0, 0.0, 0.0, 0.0, 1.7151012747188203E9, 0.0, 2024-05-07 12:01:14.718
71.0, 93.28806449472904, -167.33995356736705, -362.49354310519993, -35.85068097524345, -0.12800000607967377, 0.9920000471174717, 0.1600000075995922, 0.0, 0.0, 0.0, 0.0, 0.0, 1.7151012747196176E9, 0.0, 2024-05-07 12:01:14.719
71.0, -18.87527507636696, -284.0323119848035, -463.2651474112645, -111.91276627406478, -0.12800000607967377, 0.9920000471174717, 0.1600000075995922, 0.0, 0.0, 0.0, 0.0, 0.0, 1.7151012747196257E9, 0.0, 2024-05-07 12:01:14.719
72.0, -16.668734102509916, -237.33592113805935, -461.9898415263742, -121.35975356213748, -0.1600000075995922, 0.9920000471174717, 0.1600000075995922, 0.0, 0.0, 0.0, 0.0, 0.0, 1.7151012747475808E9, 0.0, 2024-05-07 12:01:14.747
72.0, 122.43310484942049, -130.51315870368853, -331.0896031772718, -11.511412063613534, -0.1600000075995922, 0.9920000471174717, 0.1600000075995922, 0.0, 0.0, 0.0, 0.0, 0.0, 1.7151012747475955E9, 0.0, 2024-05-07 12:01:14.747
73.0, -30.734497835859656, -254.70775643223897, -449.401338275522, -118.24815679900348, -0.1600000075995922, 0.9920000471174717, 0.1600000075995922, 0.0, 0.0, 0.0, 0.0, 0.0, 1.7151012747483172E9, 0.0, 2024-05-07 12:01:14.748
73.0, -44.14577907696366, -278.2354670534842, -480.3452705089003, -83.16789521463215, -0.1600000075995922, 0.9920000471174717, 0.1600000075995922, 0.0, 0.0, 0.0, 0.0, 0.0, 1.7151012747483242E9, 0.0, 2024-05-07 12:01:14.748
74.0, 80.73322034347802, -148.59183508949354, -339.1939663812518, -36.52012306731194, -0.1600000075995922, 0.9920000471174717, 0.1600000075995922, 0.0, 0.0, 0.0, 0.0, 0.0, 1.7151012747782755E9, 0.0, 2024-05-07 12:01:14.778
74.0, 25.644493996165693, -225.70857217581943, -443.78400854207575, -80.01141965202987, -0.1600000075995922, 0.9920000471174717, 0.1600000075995922, 0.0, 0.0, 0.0, 0.0, 0.0, 1.715101274778285E9, 0.0, 2024-05-07 12:01:14.778
75.0, -105.72323184739798, -323.73882981436327, -514.3334813062102, -152.4420620938763, -0.1600000075995922, 0.9920000471174717, 0.1600000075995922, 0.0, 0.0, 0.0, 0.0, 0.0, 1.7151012747787309E9, 0.0, 2024-05-07 12:01:14.778
75.0, 39.48212383221835, -190.01496699871495, -408.3484564619139, -65.29491332639009, -0.1600000075995922, 0.9920000471174717, 0.1600000075995922, 0.0, 0.0, 0.0, 0.0, 0.0, 1.7151012747787383E9, 0.0, 2024-05-07 12:01:14.778
76.0, 104.18987286556512, -154.18672542320564, -360.3543203305453, -42.881692891940475, -0.1600000075995922, 0.9920000471174717, 0.1600000075995922, 0.0, 0.0, 0.0, 0.0, 0.0, 1.7151012747805605E9, 0.0, 2024-05-07 12:01:14.780
76.0, -35.00172368530184, -281.0329122203402, -463.53816010802984, -121.64772585872561, -0.1600000075995922, 0.9920000471174717, 0.1600000075995922, 0.0, 0.0, 0.0, 0.0, 0.0, 1.715101274780584E9, 0.0, 2024-05-07 12:01:14.780
77.0, 36.834274663589895, -190.83026518905535, -408.5354514596984, -90.39712182898074, -0.1600000075995922, 0.9920000471174717, 0.1600000075995922, 0.0, 0.0, 0.0, 0.0, 0.0, 1.715101274781056E9, 0.0, 2024-05-07 12:01:14.781
77.0, 112.0174834728241, -108.4776681647636, -304.2932199947536, -1.006033088080585, -0.1600000075995922, 0.9920000471174717, 0.1600000075995922, 0.0, 0.0, 0.0, 0.0, 0.0, 1.7151012747810705E9, 0.0, 2024-05-07 12:01:14.781
78.0, -21.556783344596624, -253.61196574522182, -460.6733967419714, -113.06839536037296, -0.1600000075995922, 0.9920000471174717, 0.1600000075995922, 0.0, 0.0, 0.0, 0.0, 0.0, 1.7151012748079436E9, 0.0, 2024-05-07 12:01:14.807
78.0, -52.27258168067783, -266.4099033935927, -519.8124347412959, -124.41899172589183, -0.1600000075995922, 0.9920000471174717, 0.1600000075995922, 0.0, 0.0, 0.0, 0.0, 0.0, 1.715101274807963E9, 0.0, 2024-05-07 12:01:14.807
79.0, 86.90779517032206, -120.35933032399043, -350.00227725319564, -19.36894187051803, -0.1600000075995922, 0.9920000471174717, 0.1600000075995922, 0.0, 0.0, 0.0, 0.0, 0.0, 1.7151012748084147E9, 0.0, 2024-05-07 12:01:14.808
79.0, 6.720600220374763, -204.23780653020367, -398.54243877809495, -54.927910649217665, -0.1600000075995922, 0.9920000471174717, 0.1600000075995922, 0.0, 0.0, 0.0, 0.0, 0.0, 1.7151012748084328E9, 0.0, 2024-05-07 12:01:14.808
80.0, -72.94674863573164, -272.57699842052534, -496.4530196180567, -127.07432069443166, -0.1600000075995922, 0.9920000471174717, 0.1600000075995922, 0.0, 0.0, 0.0, 0.0, 0.0, 1.7151012748375733E9, 0.0, 2024-05-07 12:01:14.837
80.0, 10.733512872830033, -157.40677928505465, -380.90507058706135, -46.457037249580026, -0.1600000075995922, 0.9920000471174717, 0.1600000075995922, 0.0, 0.0, 0.0, 0.0, 0.0, 1.7151012748375857E9, 0.0, 2024-05-07 12:01:14.837
81.0, 49.684570911340415, -158.3567138737999, -379.57366620283574, -47.90811843238771, -0.1600000075995922, 0.9920000471174717, 0.1600000075995922, 0.0, 0.0, 0.0, 0.0, 0.0, 1.7151012748380456E9, 0.0, 2024-05-07 12:01:14.838
81.0, -50.63824540004134, -271.97487452765927, -457.81985307578, -115.11786053609103, -0.1600000075995922, 0.9920000471174717, 0.1600000075995922, 0.0, 0.0, 0.0, 0.0, 0.0, 1.7151012748380556E9, 0.0, 2024-05-07 12:01:14.838
82.0, 29.77708344720304, -232.8667406910099, -469.2153282407671, -90.55045772716403, -0.17600000835955143, 0.9920000471174717, 0.1600000075995922, 0.0, 0.0, 0.0, 0.0, 0.0, 1.7151012748387735E9, 0.0, 2024-05-07 12:01:14.838
82.0, 110.60380128957331, -115.45258158212528, -321.7735123876482, -2.378576371818781, -0.17600000835955143, 0.9920000471174717, 0.1600000075995922, 0.0, 0.0, 0.0, 0.0, 0.0, 1.715101274838791E9, 0.0, 2024-05-07 12:01:14.838
83.0, -22.11402843799442, -250.96785647654906, -429.99499740544707, -115.56290863081813, -0.17600000835955143, 0.9920000471174717, 0.1600000075995922, 0.0, 0.0, 0.0, 0.0, 0.0, 1.7151012748395505E9, 0.0, 2024-05-07 12:01:14.839
83.0, -55.14108494669199, -270.34801804693416, -467.1808226648718, -105.66713334806263, -0.17600000835955143, 0.9920000471174717, 0.1600000075995922, 0.0, 0.0, 0.0, 0.0, 0.0, 1.7151012748395643E9, 0.0, 2024-05-07 12:01:14.839
84.0, 110.88055388629436, -126.08511715615168, -300.16063054371625, -30.424086139537394, -0.17600000835955143, 0.9920000471174717, 0.1600000075995922, 0.0, 0.0, 0.0, 0.0, 0.0, 1.7151012748679757E9, 0.0, 2024-05-07 12:01:14.867
84.0, 31.097268131561577, -196.23816052498296, -439.5392220923677, -78.72489406727254, -0.17600000835955143, 0.9920000471174717, 0.1600000075995922, 0.0, 0.0, 0.0, 0.0, 0.0, 1.7151012748680177E9, 0.0, 2024-05-07 12:01:14.868
85.0, -69.22554817982018, -260.6205382621847, -500.2677175728604, -123.21848384011537, -0.17600000835955143, 0.9920000471174717, 0.1600000075995922, 0.0, 0.0, 0.0, 0.0, 0.0, 1.715101274868704E9, 0.0, 2024-05-07 12:01:14.868
85.0, 22.630134631879628, -174.11665228707716, -440.922985075973, -52.893405073322356, -0.17600000835955143, 0.9920000471174717, 0.1600000075995922, 0.0, 0.0, 0.0, 0.0, 0.0, 1.715101274868742E9, 0.0, 2024-05-07 12:01:14.868
