%OpenBCI Raw EXG Data
%Number of channels = 4
%Sample Rate = 200 Hz
%Board = OpenBCI_GUI$BoardGanglionNative
Sample Index, EXG Channel 0, EXG Channel 1, EXG Channel 2, EXG Channel 3, Accel Channel 0, Accel Channel 1, Accel Channel 2, Other, Other, Other, Other, Other, Timestamp, Other, Timestamp (Formatted)
0.0, 66.63566746050492, -209.8383067138493, 165.0791840441525, -2.5263024200685322, 0.0, 0.0, 0.0, 0.0, 0.0, 0.0, 0.0, 0.0, 1.7151015406425927E9, 0.0, 2024-05-07 12:05:40.642
1.0, -80.92208529124036, -363.6940509909764, 7.823870707303286, -146.40773351537064, 0.0, 1.0240000486373901, 0.0, 0.0, 0.0, 0.0, 0.0, 0.0, 1.7151015406431272E9, 0.0, 2024-05-07 12:05:40.643
1.0, -81.84958048025146, -374.70805636048317, 39.0557752372697, -141.8600151692517, 0.0, 1.0240000486373901, 0.0, 0.0, 0.0, 0.0, 0.0, 0.0, 1.715101540643151E9, 0.0, 2024-05-07 12:05:40.643
2.0, 73.17675248300657, -216.46166953537613, 156.84018444176763, -18.824786426965147, -0.06400000303983688, 1.0240000486373901, 0.0, 0.0, 0.0, 0.0, 0.0, 0.0, 1.7151015406439514E9, 0.0, 2024-05-07 12:05:40.643
2.0, -21.95134278992191, -307.5095339566469, 97.08032304979861, -98.63051158143207, -0.06400000303983688, 1.0240000486373901, 0.0, 0.0, 0.0, 0.0, 0.0, 0.0, 1.7151015406439695E9, 0.0, 2024-05-07 12:05:40.643
3.0, -115.05241228686646, -404.69457420520484, -7.453620611689985, -177.04125405242667, -0.06400000303983688, 1.0240000486373901, 0.0, 0.0, 0.0, 0.0, 0.0, 0.0, 1.7151015406446986E9, 0.0, 2024-05-07 12:05:40.644
3.0, 8.577460548374802, -273.19221196323633, 138.85874545481056, -67.70527884783223, -0.06400000303983688, 1.0240000486373901, 0.0, 0.0, 0.0, 0.0, 0.0, 0.0, 1.7151015406447256E9, 0.0, 2024-05-07 12:05:40.644
4.0, 16.064740259665996, -284.7971215257421, 130.38413215521723, -56.8595689763315, -0.06400000303983688, 1.0240000486373901, 0.0, 0.0, 0.0, 0.0, 0.0, 0.0, 1.715101540645447E9, 0.0, 2024-05-07 12:05:40.645
4.0, -123.68784128455445, -405.76418559253216, 18.007618286646903, -179.93219671817496, -0.06400000303983688, 1.0240000486373901, 0.0, 0.0, 0.0, 0.0, 0.0, 0.0, 1.715101540645475E9, 0.0, 2024-05-07 12:05:40.645
5.0, -51.863062635529786, -343.7155054276809, 79.23352046124637, -114.39418989466503, -0.06400000303983688, 1.0240000486373901, 0.0, 0.0, 0.0, 0.0, 0.0, 0.0, 1.7151015406464295E9, 0.0, 2024-05-07 12:05:40.646
5.0, 62.07672941451892, -214.15041136275977, 169.6755210896954, -13.199976893607527, -0.06400000303983688, 1.0240000486373901, 0.0, 0.0, 0.0, 0.0, 0.0, 0.0, 1.7151015406464512E9, 0.0, 2024-05-07 12:05:40.646
6.0, -86.61047312384471, -368.23428953718394, 37.38030005712062, -148.61801438918337, -0.06400000303983688, 1.0240000486373901, 0.0, 0.0, 0.0, 0.0, 0.0, 0.0, 1.7151015406728272E9, 0.0, 2024-05-07 12:05:40.672
6.0, -98.57815298205242, -371.9106111936271, 13.919907635077834, -145.1660867300816, -0.06400000303983688, 1.0240000486373901, 0.0, 0.0, 0.0, 0.0, 0.0, 0.0, 1.7151015406728463E9, 0.0, 2024-05-07 12:05:40.672
7.0, 64.05513649107888, -227.5168138043955, 180.85034215729684, -24.991881453897804, -0.06400000303983688, 1.0240000486373901, 0.0, 0.0, 0.0, 0.0, 0.0, 0.0, 1.7151015406733863E9, 0.0, 2024-05-07 12:05:40.673
7.0, -28.00998071813956, -327.76857201661915, 64.1766832396388, -89.87914568511769, -0.06400000303983688, 1.0240000486373901, 0.0, 0.0, 0.0, 0.0, 0.0, 0.0, 1.715101540673396E9, 0.0, 2024-05-07 12:05:40.673
8.0, -110.16436304477975, -410.7980909328908, 11.358076165430248, -159.3889262615703, -0.06400000303983688, 1.0240000486373901, 0.0, 0.0, 0.0, 0.0, 0.0, 0.0, 1.7151015407027197E9, 0.0, 2024-05-07 12:05:40.702
8.0, 26.162470140028745, -270.74631739221513, 78.85953046567738, -60.23669863631949, -0.06400000303983688, 1.0240000486373901, 0.0, 0.0, 0.0, 0.0, 0.0, 0.0, 1.715101540702742E9, 0.0, 2024-05-07 12:05:40.702
9.0, 18.581692929845303, -266.7857633391395, 150.42625601775944, -53.546017615590245, -0.06400000303983688, 1.0240000486373901, 0.0, 0.0, 0.0, 0.0, 0.0, 0.0, 1.7151015407034216E9, 0.0, 2024-05-07 12:05:40.703
9.0, -97.99472858896479, -404.9414076022804, -19.35024237073958, -173.42851069523022, -0.06400000303983688, 1.0240000486373901, 0.0, 0.0, 0.0, 0.0, 0.0, 0.0, 1.71510154070345E9, 0.0, 2024-05-07 12:05:40.703
10.0, -34.53610614081845, -341.14993405807763, 72.83455163706094, -110.17932264460251, -0.06400000303983688, 1.0240000486373901, -0.1600000075995922, 0.0, 0.0, 0.0, 0.0, 0.0, 1.7151015407041006E9, 0.0, 2024-05-07 12:05:40.704
10.0, 78.21065782336518, -225.9198765233159, 143.60467849858105, -21.820446291472763, -0.06400000303983688, 1.0240000486373901, -0.1600000075995922, 0.0, 0.0, 0.0, 0.0, 0.0, 1.715101540704115E9, 0.0, 2024-05-07 12:05:40.704
11.0, -59.65327424323186, -377.7074561249465, 58.89594450220466, -148.4646784910001, -0.06400000303983688, 1.0240000486373901, -0.1600000075995922, 0.0, 0.0, 0.0, 0.0, 0.0, 1.7151015407049627E9, 0.0, 2024-05-07 12:05:40.704
11.0, -80.51817609602585, -382.7413614653051, -11.028964969329536, -168.67135795159265, -0.06400000303983688, 1.0240000486373901, -0.1600000075995922, 0.0, 0.0, 0.0, 0.0, 0.0, 1.715101540704996E9, 0.0, 2024-05-07 12:05:40.704
12.0, 72.45495179155841, -233.47447443380952, 195.3499342855066, -32.71477486239746, -0.06400000303983688, 1.0240000486373901, -0.1600000075995922, 0.0, 0.0, 0.0, 0.0, 0.0, 1.7151015407327282E9, 0.0, 2024-05-07 12:05:40.732
12.0, -19.9542362135835, -325.6293492419645, 65.20889562740922, -95.08882632339373, -0.06400000303983688, 1.0240000486373901, -0.1600000075995922, 0.0, 0.0, 0.0, 0.0, 0.0, 1.7151015407327473E9, 0.0, 2024-05-07 12:05:40.732
13.0, -106.08039229316637, -413.03081120643765, 32.12200071942061, -175.60887236939743, -0.06400000303983688, 1.0240000486373901, -0.1600000075995922, 0.0, 0.0, 0.0, 0.0, 0.0, 1.7151015407629282E9, 0.0, 2024-05-07 12:05:40.762
13.0, 12.822246998082846, -272.52276987116784, 119.04101558960974, -48.257799078244716, -0.06400000303983688, 1.0240000486373901, -0.1600000075995922, 0.0, 0.0, 0.0, 0.0, 0.0, 1.7151015407629552E9, 0.0, 2024-05-07 12:05:40.762
14.0, 25.399530549068004, -277.163985716179, 158.10427062679082, -39.51391298184171, -0.06400000303983688, 1.0240000486373901, -0.1600000075995922, 0.0, 0.0, 0.0, 0.0, 0.0, 1.715101540763236E9, 0.0, 2024-05-07 12:05:40.763
14.0, -108.9975142586045, -400.748979751952, -22.865748329088092, -163.45045761344954, -0.06400000303983688, 1.0240000486373901, -0.1600000075995922, 0.0, 0.0, 0.0, 0.0, 0.0, 1.715101540763252E9, 0.0, 2024-05-07 12:05:40.763
15.0, -49.26009226636961, -339.65397407580167, 95.46842616889626, -112.58033841615543, -0.06400000303983688, 1.0240000486373901, -0.1600000075995922, 0.0, 0.0, 0.0, 0.0, 0.0, 1.7151015407640903E9, 0.0, 2024-05-07 12:05:40.764
15.0, 62.731211906764656, -236.52997269760817, 166.6761213252321, -34.199515144806355, -0.06400000303983688, 1.0240000486373901, -0.1600000075995922, 0.0, 0.0, 0.0, 0.0, 0.0, 1.7151015407641077E9, 0.0, 2024-05-07 12:05:40.764
16.0, -79.30270861042663, -378.1338047198951, 48.906671720556915, -134.7093264539726, -0.06400000303983688, 1.0240000486373901, -0.1600000075995922, 0.0, 0.0, 0.0, 0.0, 0.0, 1.7151015407644906E9, 0.0, 2024-05-07 12:05:40.764
16.0, -89.9876027838327, -378.91918371059, 47.04420154262334, -139.14110790146515, -0.06400000303983688, 1.0240000486373901, -0.1600000075995922, 0.0, 0.0, 0.0, 0.0, 0.0, 1.7151015407645004E9, 0.0, 2024-05-07 12:05:40.764
17.0, 63.81204299395904, -227.82348560076207, 193.08355491235852, -19.1763370228, -0.06400000303983688, 1.0240000486373901, -0.1600000075995922, 0.0, 0.0, 0.0, 0.0, 0.0, 1.7151015407654636E9, 0.0, 2024-05-07 12:05:40.765
17.0, -29.64431699877605, -330.28178478684276, 97.31593674700707, -97.01487480057403, -0.06400000303983688, 1.0240000486373901, -0.1600000075995922, 0.0, 0.0, 0.0, 0.0, 0.0, 1.7151015407654772E9, 0.0, 2024-05-07 12:05:40.765
18.0, -109.8876104480587, -403.92041491437703, -6.604663321748376, -199.3347976882942, -0.06400000303983688, 1.0240000486373901, -0.1600000075995922, 0.0, 0.0, 0.0, 0.0, 0.0, 1.715101540792764E9, 0.0, 2024-05-07 12:05:40.792
18.0, 32.41932276589796, -291.7346359435469, 160.46788739878684, -58.98009225120768, -0.06400000303983688, 1.0240000486373901, -0.1600000075995922, 0.0, 0.0, 0.0, 0.0, 0.0, 1.7151015407927907E9, 0.0, 2024-05-07 12:05:40.792
19.0, 25.781000344548374, -283.12164634559304, 138.86622525472194, -42.73770674364641, -0.06400000303983688, 1.0240000486373901, -0.1600000075995922, 0.0, 0.0, 0.0, 0.0, 0.0, 1.7151015407941854E9, 0.0, 2024-05-07 12:05:40.794
19.0, -103.29790672613308, -417.1671405574307, 34.59033469017595, -157.9041859791614, -0.06400000303983688, 1.0240000486373901, -0.1600000075995922, 0.0, 0.0, 0.0, 0.0, 0.0, 1.715101540794217E9, 0.0, 2024-05-07 12:05:40.794
20.0, -26.162470140028745, -339.51559777744114, 67.17608300410211, -115.94998827623203, -0.06400000303983688, 1.0240000486373901, -0.17600000835955143, 0.0, 0.0, 0.0, 0.0, 0.0, 1.7151015408226721E9, 0.0, 2024-05-07 12:05:40.822
20.0, 69.34335502842441, -242.23332013003528, 200.63441292289644, -20.619938405696303, -0.06400000303983688, 1.0240000486373901, -0.17600000835955143, 0.0, 0.0, 0.0, 0.0, 0.0, 1.7151015408226953E9, 0.0, 2024-05-07 12:05:40.822
21.0, -58.08999606175348, -377.038014032878, 27.046956479549408, -120.8155981185846, -0.06400000303983688, 1.008000047877431, -0.17600000835955143, 0.0, 0.0, 0.0, 0.0, 0.0, 1.715101540823127E9, 0.0, 2024-05-07 12:05:40.823
21.0, -69.02546353219077, -396.8856630977243, 60.37694488465786, -147.74287779955193, -0.06400000303983688, 1.008000047877431, -0.17600000835955143, 0.0, 0.0, 0.0, 0.0, 0.0, 1.715101540823143E9, 0.0, 2024-05-07 12:05:40.823
22.0, 74.04066937277094, -231.71672145463526, 153.78842607792467, -23.56697957077995, -0.04800000227987766, 1.008000047877431, -0.17600000835955143, 0.0, 0.0, 0.0, 0.0, 0.0, 1.7151015408238568E9, 0.0, 2024-05-07 12:05:40.823
22.0, -18.555513630155474, -318.0336124319583, 86.39542887639254, -96.74186210380867, -0.04800000227987766, 1.008000047877431, -0.17600000835955143, 0.0, 0.0, 0.0, 0.0, 0.0, 1.715101540823871E9, 0.0, 2024-05-07 12:05:40.823
23.0, -110.10452464548871, -406.76273888070136, -30.914013033732772, -185.26903395494446, -0.04800000227987766, 1.008000047877431, -0.17600000835955143, 0.0, 0.0, 0.0, 0.0, 0.0, 1.7151015408525708E9, 0.0, 2024-05-07 12:05:40.852
23.0, 27.56119272345677, -267.59732162952423, 150.9199228119105, -55.501985292416066, -0.04800000227987766, 1.008000047877431, -0.17600000835955143, 0.0, 0.0, 0.0, 0.0, 0.0, 1.71510154085259E9, 0.0, 2024-05-07 12:05:40.852
24.0, 23.52584067126736, -260.0838626185432, 96.8634088523686, -54.739045701455325, -0.04800000227987766, 1.008000047877431, -0.17600000835955143, 0.0, 0.0, 0.0, 0.0, 0.0, 1.7151015408530257E9, 0.0, 2024-05-07 12:05:40.853
24.0, -99.33735267305747, -395.16904901806265, 4.547718346118927, -153.00117713725194, -0.04800000227987766, 1.008000047877431, -0.17600000835955143, 0.0, 0.0, 0.0, 0.0, 0.0, 1.7151015408530412E9, 0.0, 2024-05-07 12:05:40.853
25.0, -31.776059973519295, -311.8814770048484, 56.580946429632604, -84.66946504684165, -0.04800000227987766, 1.008000047877431, -0.17600000835955143, 0.0, 0.0, 0.0, 0.0, 0.0, 1.7151015408538632E9, 0.0, 2024-05-07 12:05:40.853
25.0, 85.2454096400179, -226.00963412225246, 187.48118477873504, -24.947002654429525, -0.04800000227987766, 1.008000047877431, -0.17600000835955143, 0.0, 0.0, 0.0, 0.0, 0.0, 1.7151015408538802E9, 0.0, 2024-05-07 12:05:40.853
26.0, -65.02751047955826, -370.175297614187, 2.696467868052423, -136.3100036350079, -0.04800000227987766, 1.008000047877431, -0.17600000835955143, 0.0, 0.0, 0.0, 0.0, 0.0, 1.7151015408548052E9, 0.0, 2024-05-07 12:05:40.854
26.0, -84.93499794369563, -387.0684257140383, 44.523508972488344, -159.41884546121582, -0.04800000227987766, 1.008000047877431, -0.17600000835955143, 0.0, 0.0, 0.0, 0.0, 0.0, 1.7151015408548222E9, 0.0, 2024-05-07 12:05:40.854
27.0, 72.31657549319789, -219.40871070045978, 143.45508250035346, -13.88811848545447, -0.04800000227987766, 1.008000047877431, -0.17600000835955143, 0.0, 0.0, 0.0, 0.0, 0.0, 1.7151015408828125E9, 0.0, 2024-05-07 12:05:40.882
27.0, -25.59774524671957, -315.9355285568163, 90.92818762268871, -104.56199291115627, -0.04800000227987766, 1.008000047877431, -0.17600000835955143, 0.0, 0.0, 0.0, 0.0, 0.0, 1.7151015408828385E9, 0.0, 2024-05-07 12:05:40.882
28.0, -115.39274318283424, -399.14082277100533, -16.0815698094666, -189.4764214050956, -0.04800000227987766, 1.008000047877431, -0.17600000835955143, 0.0, 0.0, 0.0, 0.0, 0.0, 1.71510154088353E9, 0.0, 2024-05-07 12:05:40.883
28.0, 22.493628283496946, -268.25180412176996, 137.31790667306632, -49.095536668319255, -0.04800000227987766, 1.008000047877431, -0.17600000835955143, 0.0, 0.0, 0.0, 0.0, 0.0, 1.715101540883556E9, 0.0, 2024-05-07 12:05:40.883
29.0, 23.705355869140476, -280.21948397997767, 96.54925725609064, -63.954159192275256, -0.04800000227987766, 1.008000047877431, -0.17600000835955143, 0.0, 0.0, 0.0, 0.0, 0.0, 1.715101540912652E9, 0.0, 2024-05-07 12:05:40.912
29.0, -109.5884184516035, -410.61483583506197, 46.1690649529919, -178.11460533970967, -0.04800000227987766, 1.008000047877431, -0.17600000835955143, 0.0, 0.0, 0.0, 0.0, 0.0, 1.715101540912671E9, 0.0, 2024-05-07 12:05:40.912
30.0, -39.73082717927173, -346.80840269103646, 48.43544432613999, -109.7380144498311, -0.04800000227987766, 1.008000047877431, -0.1600000075995922, 0.0, 0.0, 0.0, 0.0, 0.0, 1.7151015409130821E9, 0.0, 2024-05-07 12:05:40.913
30.0, 68.4233396393247, -240.80467834696174, 193.52860300708562, -33.459014953579754, -0.04800000227987766, 1.008000047877431, -0.1600000075995922, 0.0, 0.0, 0.0, 0.0, 0.0, 1.715101540913097E9, 0.0, 2024-05-07 12:05:40.913
31.0, -65.31548277614638, -379.2071560071781, 14.215359731577337, -130.68519410165027, -0.04800000227987766, 1.0240000486373901, -0.1600000075995922, 0.0, 0.0, 0.0, 0.0, 0.0, 1.7151015409137752E9, 0.0, 2024-05-07 12:05:40.913
31.0, -78.88009991543368, -380.9162902869284, 39.44472483266145, -158.8316811681725, -0.04800000227987766, 1.0240000486373901, -0.1600000075995922, 0.0, 0.0, 0.0, 0.0, 0.0, 1.7151015409137845E9, 0.0, 2024-05-07 12:05:40.913
32.0, 80.75378979323432, -228.08527859766036, 159.49925331026316, -27.53875332372263, -0.04800000227987766, 1.0240000486373901, -0.1600000075995922, 0.0, 0.0, 0.0, 0.0, 0.0, 1.715101540914656E9, 0.0, 2024-05-07 12:05:40.914
32.0, -34.70814153878018, -331.55335077177733, 80.46394754666835, -96.39405140792951, -0.04800000227987766, 1.0240000486373901, -0.1600000075995922, 0.0, 0.0, 0.0, 0.0, 0.0, 1.7151015409146688E9, 0.0, 2024-05-07 12:05:40.914
33.0, -89.49767588963732, -403.47536681964993, -6.2568526258692145, -183.5823390749283, -0.04800000227987766, 1.0240000486373901, -0.1600000075995922, 0.0, 0.0, 0.0, 0.0, 0.0, 1.715101540972704E9, 0.0, 2024-05-07 12:05:40.972
33.0, 39.60367058077827, -261.2058326052502, 142.05262001696974, -55.2289725956507, -0.04800000227987766, 1.0240000486373901, -0.1600000075995922, 0.0, 0.0, 0.0, 0.0, 0.0, 1.715101540972737E9, 0.0, 2024-05-07 12:05:40.972
34.0, 37.468187706079334, -263.7115655755624, 129.34070006757975, -42.88356284191832, -0.04800000227987766, 1.0240000486373901, -0.1600000075995922, 0.0, 0.0, 0.0, 0.0, 0.0, 1.7151015409732113E9, 0.0, 2024-05-07 12:05:40.973
34.0, -101.65609064558521, -406.5533044831827, 0.4749672943726182, -169.82324713794515, -0.04800000227987766, 1.0240000486373901, -0.1600000075995922, 0.0, 0.0, 0.0, 0.0, 0.0, 1.7151015409732263E9, 0.0, 2024-05-07 12:05:40.973
35.0, -6.22506347624585, -325.72284674085677, 57.23916882183403, -131.21251999540254, -0.04800000227987766, 1.0240000486373901, -0.1600000075995922, 0.0, 0.0, 0.0, 0.0, 0.0, 1.7151015409738035E9, 0.0, 2024-05-07 12:05:40.973
35.0, 80.87720649177209, -229.94026897568256, 144.26664079073817, -41.851350454147905, -0.04800000227987766, 1.0240000486373901, -0.1600000075995922, 0.0, 0.0, 0.0, 0.0, 0.0, 1.7151015409738235E9, 0.0, 2024-05-07 12:05:40.973
36.0, -67.63796064862981, -370.2164365136996, 44.523508972488344, -158.12110017659143, -0.04800000227987766, 1.0240000486373901, -0.1600000075995922, 0.0, 0.0, 0.0, 0.0, 0.0, 1.7151015409744775E9, 0.0, 2024-05-07 12:05:40.974
36.0, -84.64702564710751, -386.3017462231219, -1.7240938795730472, -145.40544032724574, -0.04800000227987766, 1.0240000486373901, -0.1600000075995922, 0.0, 0.0, 0.0, 0.0, 0.0, 1.7151015409744995E9, 0.0, 2024-05-07 12:05:40.974
37.0, 91.39006526721641, -219.39375110063702, 190.4955441430211, -27.404116925317794, -0.04800000227987766, 1.0240000486373901, -0.1600000075995922, 0.0, 0.0, 0.0, 0.0, 0.0, 1.7151015409750552E9, 0.0, 2024-05-07 12:05:40.975
37.0, -13.413151191081852, -317.77181943506, 37.52241625543684, -92.29138115653768, -0.04800000227987766, 1.0240000486373901, -0.1600000075995922, 0.0, 0.0, 0.0, 0.0, 0.0, 1.7151015409750652E9, 0.0, 2024-05-07 12:05:40.975
38.0, -107.77830687304959, -399.2567596696317, 11.948980358429253, -173.4359904951416, -0.04800000227987766, 1.0240000486373901, -0.1600000075995922, 0.0, 0.0, 0.0, 0.0, 0.0, 1.7151015409759476E9, 0.0, 2024-05-07 12:05:40.975
38.0, 35.95352822402492, -250.93980722688138, 96.55673705600202, -55.580523191485554, -0.04800000227987766, 1.0240000486373901, -0.1600000075995922, 0.0, 0.0, 0.0, 0.0, 0.0, 1.7151015409759593E9, 0.0, 2024-05-07 12:05:40.975
39.0, 40.265632872935385, -274.7592300446704, 116.44926492031664, -46.18589450279251, -0.04800000227987766, 1.0240000486373901, -0.1600000075995922, 0.0, 0.0, 0.0, 0.0, 0.0, 1.715101541002625E9, 0.0, 2024-05-07 12:05:41.002
39.0, -95.97144271293655, -397.28957229293883, -37.43265865650028, -176.5513271582313, -0.04800000227987766, 1.0240000486373901, -0.1600000075995922, 0.0, 0.0, 0.0, 0.0, 0.0, 1.715101541002644E9, 0.0, 2024-05-07 12:05:41.002
40.0, -17.310126944910735, -320.0381988082081, 51.311427392065525, -106.98170818248764, -0.04800000227987766, 1.0240000486373901, -0.1600000075995922, 0.0, 0.0, 0.0, 0.0, 0.0, 1.7151015410034585E9, 0.0, 2024-05-07 12:05:41.003
40.0, 90.25687558064237, -227.26250060740858, 156.73546724300832, -12.781108098570257, -0.04800000227987766, 1.0240000486373901, -0.1600000075995922, 0.0, 0.0, 0.0, 0.0, 0.0, 1.7151015410034752E9, 0.0, 2024-05-07 12:05:41.003
41.0, -55.47580599272624, -365.4779832698405, 8.84112349525094, -145.5363368256949, -0.04800000227987766, 1.0240000486373901, -0.1600000075995922, 0.0, 0.0, 0.0, 0.0, 0.0, 1.7151015410326464E9, 0.0, 2024-05-07 12:05:41.032
41.0, -80.58175439527258, -373.5898262737319, -30.835475134663284, -151.15740645909682, -0.04800000227987766, 1.0240000486373901, -0.1600000075995922, 0.0, 0.0, 0.0, 0.0, 0.0, 1.7151015410326688E9, 0.0, 2024-05-07 12:05:41.032
42.0, 86.62169282371178, -211.6558980923146, 148.7732202373445, -14.138691782485694, -0.06400000303983688, 1.0240000486373901, -0.1600000075995922, 0.0, 0.0, 0.0, 0.0, 0.0, 1.7151015410333383E9, 0.0, 2024-05-07 12:05:41.033
42.0, -28.32039241446182, -314.9594146683812, 65.07799912896007, -95.88542501395568, -0.06400000303983688, 1.0240000486373901, -0.1600000075995922, 0.0, 0.0, 0.0, 0.0, 0.0, 1.7151015410333729E9, 0.0, 2024-05-07 12:05:41.033
43.0, -95.75452851550654, -396.80338529869914, -21.71011924277991, -162.44442452536896, -0.06400000303983688, 1.0240000486373901, -0.1600000075995922, 0.0, 0.0, 0.0, 0.0, 0.0, 1.7151015410340736E9, 0.0, 2024-05-07 12:05:41.034
43.0, 45.80816460726783, -268.6444936171174, 141.07650612853467, -65.46133887441829, -0.06400000303983688, 1.0240000486373901, -0.1600000075995922, 0.0, 0.0, 0.0, 0.0, 0.0, 1.715101541034092E9, 0.0, 2024-05-07 12:05:41.034
44.0, 39.023986087646335, -264.2014924697578, 91.17876091971993, -48.55325117474422, -0.06400000303983688, 1.0240000486373901, -0.1600000075995922, 0.0, 0.0, 0.0, 0.0, 0.0, 1.7151015410348384E9, 0.0, 2024-05-07 12:05:41.034
44.0, -103.2904269262217, -406.46728678420186, 5.546271634288132, -163.9441244076006, -0.06400000303983688, 1.0240000486373901, -0.1600000075995922, 0.0, 0.0, 0.0, 0.0, 0.0, 1.7151015410348587E9, 0.0, 2024-05-07 12:05:41.034
45.0, -34.255613644141704, -326.081877136603, 27.7163985716179, -116.48479396989569, -0.06400000303983688, 1.0240000486373901, -0.1600000075995922, 0.0, 0.0, 0.0, 0.0, 0.0, 1.715101541062663E9, 0.0, 2024-05-07 12:05:41.062
45.0, 83.78684865729883, -233.19772183708847, 167.51759881526232, -8.906571744475514, -0.06400000303983688, 1.0240000486373901, -0.1600000075995922, 0.0, 0.0, 0.0, 0.0, 0.0, 1.715101541062682E9, 0.0, 2024-05-07 12:05:41.062
46.0, -69.47799142682925, -378.4816154157743, -31.295482829213142, -140.12844148976728, -0.06400000303983688, 1.0240000486373901, -0.1600000075995922, 0.0, 0.0, 0.0, 0.0, 0.0, 1.715101541063424E9, 0.0, 2024-05-07 12:05:41.063
46.0, -79.53084250772372, -383.50056115631014, 44.108380077406764, -148.37866079201922, -0.06400000303983688, 1.0240000486373901, -0.1600000075995922, 0.0, 0.0, 0.0, 0.0, 0.0, 1.7151015410634458E9, 0.0, 2024-05-07 12:05:41.063
47.0, 76.62494024215266, -211.4689030945301, 129.9540436603129, -13.757221987005323, -0.06400000303983688, 1.0240000486373901, -0.1600000075995922, 0.0, 0.0, 0.0, 0.0, 0.0, 1.7151015410925548E9, 0.0, 2024-05-07 12:05:41.092
47.0, -27.329318926203996, -328.36321610957384, 70.30263936705887, -109.93996904743835, -0.06400000303983688, 1.0240000486373901, -0.1600000075995922, 0.0, 0.0, 0.0, 0.0, 0.0, 1.7151015410925715E9, 0.0, 2024-05-07 12:05:41.092
48.0, -97.90123109007254, -395.21018791757524, -28.307302764616907, -160.51837604818866, -0.06400000303983688, 1.0240000486373901, -0.1600000075995922, 0.0, 0.0, 0.0, 0.0, 0.0, 1.7151015410931957E9, 0.0, 2024-05-07 12:05:41.093
48.0, 20.937829901929945, -269.1605998110026, 137.51986127067357, -72.6830856888555, -0.06400000303983688, 1.0240000486373901, -0.1600000075995922, 0.0, 0.0, 0.0, 0.0, 0.0, 1.7151015410932033E9, 0.0, 2024-05-07 12:05:41.093
49.0, 28.163316616322845, -276.78999572061, 70.37369746621698, -69.47425152687356, -0.06400000303983688, 1.0240000486373901, -0.1600000075995922, 0.0, 0.0, 0.0, 0.0, 0.0, 1.7151015410940003E9, 0.0, 2024-05-07 12:05:41.094
49.0, -105.59420529892668, -405.4911728957668, 7.083370516076684, -160.7203306457959, -0.06400000303983688, 1.0240000486373901, -0.1600000075995922, 0.0, 0.0, 0.0, 0.0, 0.0, 1.715101541094015E9, 0.0, 2024-05-07 12:05:41.094
50.0, -40.202054573688656, -322.4092953801155, 26.770203882828355, -116.5184530694969, -0.06400000303983688, 1.0240000486373901, -0.17600000835955143, 0.0, 0.0, 0.0, 0.0, 0.0, 1.7151015410951972E9, 0.0, 2024-05-07 12:05:41.095
50.0, 76.16119264764711, -235.58003810886294, 164.5929970499128, -6.5803539720363915, -0.06400000303983688, 1.0240000486373901, -0.17600000835955143, 0.0, 0.0, 0.0, 0.0, 0.0, 1.7151015410952313E9, 0.0, 2024-05-07 12:05:41.095
51.0, -63.35577519936487, -361.1247397214174, -15.748718713410199, -137.17018062481657, -0.06400000303983688, 1.008000047877431, -0.17600000835955143, 0.0, 0.0, 0.0, 0.0, 0.0, 1.7151015411227376E9, 0.0, 2024-05-07 12:05:41.122
51.0, -79.96467090258375, -372.22476278990507, 6.948734117671847, -167.97199665987864, -0.06400000303983688, 1.008000047877431, -0.17600000835955143, 0.0, 0.0, 0.0, 0.0, 0.0, 1.715101541122754E9, 0.0, 2024-05-07 12:05:41.122
52.0, 84.56100794812664, -223.6235779505223, 130.26819525659084, -8.727056546602398, -0.04800000227987766, 1.008000047877431, -0.17600000835955143, 0.0, 0.0, 0.0, 0.0, 0.0, 1.7151015411236253E9, 0.0, 2024-05-07 12:05:41.123
52.0, -17.747695239726454, -314.8883565692231, 61.738268468528986, -97.86757199047133, -0.04800000227987766, 1.008000047877431, -0.17600000835955143, 0.0, 0.0, 0.0, 0.0, 0.0, 1.7151015411236525E9, 0.0, 2024-05-07 12:05:41.123
53.0, -105.2538744029589, -393.0672252429649, -73.219761332497, -156.63635989418253, -0.04800000227987766, 1.008000047877431, -0.17600000835955143, 0.0, 0.0, 0.0, 0.0, 0.0, 1.7151015411526632E9, 0.0, 2024-05-07 12:05:41.152
53.0, 46.94883409375325, -253.62131549511105, 136.63350498117507, -43.36227003624663, -0.04800000227987766, 1.008000047877431, -0.17600000835955143, 0.0, 0.0, 0.0, 0.0, 0.0, 1.7151015411526823E9, 0.0, 2024-05-07 12:05:41.152
54.0, 32.72599456226453, -262.18568639364094, 78.64261626824737, -42.08696415135637, -0.04800000227987766, 1.008000047877431, -0.17600000835955143, 0.0, 0.0, 0.0, 0.0, 0.0, 1.7151015411530423E9, 0.0, 2024-05-07 12:05:41.153
54.0, -84.37401295034215, -398.50877967849374, -7.371342812664807, -152.7206846405752, -0.04800000227987766, 1.008000047877431, -0.17600000835955143, 0.0, 0.0, 0.0, 0.0, 0.0, 1.715101541153052E9, 0.0, 2024-05-07 12:05:41.153
55.0, -14.033974583726376, -317.9962134324014, 14.772604824975133, -108.12237766897306, -0.04800000227987766, 1.008000047877431, -0.17600000835955143, 0.0, 0.0, 0.0, 0.0, 0.0, 1.715101541153703E9, 0.0, 2024-05-07 12:05:41.153
55.0, 74.63905336568132, -210.8779989015311, 160.31081160064787, -14.191050381865352, -0.04800000227987766, 1.008000047877431, -0.17600000835955143, 0.0, 0.0, 0.0, 0.0, 0.0, 1.7151015411537108E9, 0.0, 2024-05-07 12:05:41.153
56.0, -62.62275480804965, -369.44601712282747, 1.7128741797059774, -141.51220447337255, -0.04800000227987766, 1.008000047877431, -0.17600000835955143, 0.0, 0.0, 0.0, 0.0, 0.0, 1.7151015411546223E9, 0.0, 2024-05-07 12:05:41.154
56.0, -60.64808763144538, -364.868379577063, 43.244463187642395, -163.77956880955026, -0.04800000227987766, 1.008000047877431, -0.17600000835955143, 0.0, 0.0, 0.0, 0.0, 0.0, 1.7151015411546333E9, 0.0, 2024-05-07 12:05:41.154
57.0, 93.48814914235845, -210.92661760095507, 132.57571352925152, -2.2009311239235103, -0.04800000227987766, 1.008000047877431, -0.17600000835955143, 0.0, 0.0, 0.0, 0.0, 0.0, 1.7151015411827378E9, 0.0, 2024-05-07 12:05:41.182
57.0, -22.587125782389194, -325.09454354830086, 71.24135425593704, -112.04553272249177, -0.04800000227987766, 1.008000047877431, -0.17600000835955143, 0.0, 0.0, 0.0, 0.0, 0.0, 1.715101541182759E9, 0.0, 2024-05-07 12:05:41.182
58.0, -94.1351518346928, -396.88192319776863, -48.15869172941893, -182.3668715893291, -0.04800000227987766, 1.008000047877431, -0.17600000835955143, 0.0, 0.0, 0.0, 0.0, 0.0, 1.7151015411833873E9, 0.0, 2024-05-07 12:05:41.183
58.0, 50.39702185289934, -269.28775640949607, 149.24444763176143, -53.26178521895781, -0.04800000227987766, 1.008000047877431, -0.17600000835955143, 0.0, 0.0, 0.0, 0.0, 0.0, 1.7151015411833975E9, 0.0, 2024-05-07 12:05:41.183
59.0, 29.12821080489084, -270.4172061961144, 75.87135040108114, -57.151281172875315, -0.04800000227987766, 1.008000047877431, -0.17600000835955143, 0.0, 0.0, 0.0, 0.0, 0.0, 1.715101541212669E9, 0.0, 2024-05-07 12:05:41.212
59.0, -102.99871472967789, -397.7346203876659, 0.9013158893212676, -165.16333179315552, -0.04800000227987766, 1.008000047877431, -0.17600000835955143, 0.0, 0.0, 0.0, 0.0, 0.0, 1.7151015412126913E9, 0.0, 2024-05-07 12:05:41.212
60.0, -38.189988397527486, -306.87001106422395, 45.7614158578217, -97.97228918923065, -0.04800000227987766, 1.008000047877431, -0.17600000835955143, 0.0, 0.0, 0.0, 0.0, 0.0, 1.7151015412130063E9, 0.0, 2024-05-07 12:05:41.213
60.0, 62.29738351190463, -212.88632517773658, 170.28138488251716, -24.976921854075044, -0.04800000227987766, 1.008000047877431, -0.17600000835955143, 0.0, 0.0, 0.0, 0.0, 0.0, 1.7151015412130144E9, 0.0, 2024-05-07 12:05:41.213
61.0, -73.31886868132278, -375.85620564687997, -14.09568293299526, -144.18249304173514, -0.04800000227987766, 1.0240000486373901, -0.17600000835955143, 0.0, 0.0, 0.0, 0.0, 0.0, 1.715101541213806E9, 0.0, 2024-05-07 12:05:41.213
61.0, -82.14503257675096, -389.23756768833846, 2.300038472749293, -173.53696779394522, -0.04800000227987766, 1.0240000486373901, -0.17600000835955143, 0.0, 0.0, 0.0, 0.0, 0.0, 1.715101541213824E9, 0.0, 2024-05-07 12:05:41.213
62.0, 77.97878402611241, -215.70994964428246, 141.64871082175523, -17.598099241498858, -0.06400000303983688, 1.0240000486373901, -0.17600000835955143, 0.0, 0.0, 0.0, 0.0, 0.0, 1.715101541215046E9, 0.0, 2024-05-07 12:05:41.215
62.0, -26.031573641579598, -336.1496878173202, 71.70884175039828, -106.67129648616537, -0.06400000303983688, 1.0240000486373901, -0.17600000835955143, 0.0, 0.0, 0.0, 0.0, 0.0, 1.7151015412150643E9, 0.0, 2024-05-07 12:05:41.215
63.0, -113.76962660206482, -405.3490566974506, -25.592135396786034, -177.87525174254552, -0.06400000303983688, 1.0240000486373901, -0.17600000835955143, 0.0, 0.0, 0.0, 0.0, 0.0, 1.7151015412427928E9, 0.0, 2024-05-07 12:05:41.242
63.0, 23.466002271976322, -251.8186837164685, 136.9177373778075, -50.337183453608304, -0.06400000303983688, 1.0240000486373901, -0.17600000835955143, 0.0, 0.0, 0.0, 0.0, 0.0, 1.7151015412428167E9, 0.0, 2024-05-07 12:05:41.242
64.0, 21.53247399488464, -272.95659826602787, 87.01999216899276, -77.40283943293616, -0.06400000303983688, 1.0240000486373901, -0.17600000835955143, 0.0, 0.0, 0.0, 0.0, 0.0, 1.7151015412432592E9, 0.0, 2024-05-07 12:05:41.243
64.0, -100.44062315998599, -414.03310439456254, -17.005325098522007, -173.877298689913, -0.06400000303983688, 1.0240000486373901, -0.17600000835955143, 0.0, 0.0, 0.0, 0.0, 0.0, 1.7151015412432811E9, 0.0, 2024-05-07 12:05:41.243
65.0, -24.77496725646779, -330.3491029860452, 44.80400146916509, -95.4366370192729, -0.06400000303983688, 1.0240000486373901, -0.17600000835955143, 0.0, 0.0, 0.0, 0.0, 0.0, 1.7151015412735631E9, 0.0, 2024-05-07 12:05:41.273
65.0, 73.67789907706901, -220.1454709917307, 144.67054998595268, -23.869911467190832, -0.06400000303983688, 1.0240000486373901, -0.17600000835955143, 0.0, 0.0, 0.0, 0.0, 0.0, 1.7151015412735865E9, 0.0, 2024-05-07 12:05:41.273
66.0, -62.89202760485932, -374.4275638638064, 29.171219654381275, -151.239684258122, -0.06400000303983688, 1.0240000486373901, -0.17600000835955143, 0.0, 0.0, 0.0, 0.0, 0.0, 1.715101541273919E9, 0.0, 2024-05-07 12:05:41.273
66.0, -65.35288177570328, -385.11993783712387, 20.449772957712412, -154.10070772422478, -0.06400000303983688, 1.0240000486373901, -0.17600000835955143, 0.0, 0.0, 0.0, 0.0, 0.0, 1.7151015412739294E9, 0.0, 2024-05-07 12:05:41.273
67.0, 85.3912657382898, -225.12327783275396, 191.14254683535546, -11.07945361873135, -0.06400000303983688, 1.0240000486373901, -0.17600000835955143, 0.0, 0.0, 0.0, 0.0, 0.0, 1.715101541274358E9, 0.0, 2024-05-07 12:05:41.274
67.0, -8.742016146425158, -332.3424696624279, 57.762754815630615, -102.81919953180477, -0.06400000303983688, 1.0240000486373901, -0.17600000835955143, 0.0, 0.0, 0.0, 0.0, 0.0, 1.715101541274364E9, 0.0, 2024-05-07 12:05:41.274
68.0, -103.49612142378464, -414.92320058401674, 13.220546343363822, -191.72410127846524, -0.06400000303983688, 1.0240000486373901, -0.17600000835955143, 0.0, 0.0, 0.0, 0.0, 0.0, 1.7151015412754283E9, 0.0, 2024-05-07 12:05:41.275
68.0, 37.397129606921226, -277.0256094178185, 110.04655619617552, -44.53659862233326, -0.06400000303983688, 1.0240000486373901, -0.17600000835955143, 0.0, 0.0, 0.0, 0.0, 0.0, 1.7151015412754393E9, 0.0, 2024-05-07 12:05:41.275
69.0, 17.766394739504904, -280.0175293823704, 114.63541344180703, -56.59777597943321, -0.06400000303983688, 1.0240000486373901, -0.17600000835955143, 0.0, 0.0, 0.0, 0.0, 0.0, 1.7151015413027623E9, 0.0, 2024-05-07 12:05:41.302
69.0, -96.46136960713193, -407.61917597055435, -23.909180416725576, -158.91769886715338, -0.06400000303983688, 1.0240000486373901, -0.17600000835955143, 0.0, 0.0, 0.0, 0.0, 0.0, 1.71510154130278E9, 0.0, 2024-05-07 12:05:41.302
70.0, -33.94146204786375, -321.61643658950925, 92.19975360762328, -89.14612529380247, -0.06400000303983688, 1.0240000486373901, -0.17600000835955143, 0.0, 0.0, 0.0, 0.0, 0.0, 1.7151015413034465E9, 0.0, 2024-05-07 12:05:41.303
70.0, 60.92110032821074, -227.43079610541463, 148.8068793369457, -30.38107729004696, -0.06400000303983688, 1.0240000486373901, -0.17600000835955143, 0.0, 0.0, 0.0, 0.0, 0.0, 1.715101541303465E9, 0.0, 2024-05-07 12:05:41.303
71.0, -63.66244699573144, -370.49692901037633, 30.091235043480992, -134.51859155623242, -0.06400000303983688, 1.0240000486373901, -0.17600000835955143, 0.0, 0.0, 0.0, 0.0, 0.0, 1.7151015413326035E9, 0.0, 2024-05-07 12:05:41.332
71.0, -82.66487867059186, -380.5535199912265, -2.247679873369634, -147.8251555985771, -0.06400000303983688, 1.0240000486373901, -0.17600000835955143, 0.0, 0.0, 0.0, 0.0, 0.0, 1.7151015413326182E9, 0.0, 2024-05-07 12:05:41.332
72.0, 69.98287792084739, -224.9923813343048, 182.87736793328077, -7.803301257546991, -0.04800000227987766, 1.0240000486373901, -0.17600000835955143, 0.0, 0.0, 0.0, 0.0, 0.0, 1.7151015413331285E9, 0.0, 2024-05-07 12:05:41.333
72.0, -35.54587912885472, -331.88246196787804, 45.51458246074617, -118.79605214251205, -0.04800000227987766, 1.0240000486373901, -0.17600000835955143, 0.0, 0.0, 0.0, 0.0, 0.0, 1.71510154133314E9, 0.0, 2024-05-07 12:05:41.333
73.0, -101.01282785320655, -409.6050628470257, -16.90434779971838, -168.79103475017473, -0.04800000227987766, 1.0240000486373901, -0.17600000835955143, 0.0, 0.0, 0.0, 0.0, 0.0, 1.71510154133387E9, 0.0, 2024-05-07 12:05:41.333
73.0, 40.88645626557991, -264.0593762714416, 133.52938801795244, -43.72878023190424, -0.04800000227987766, 1.0240000486373901, -0.17600000835955143, 0.0, 0.0, 0.0, 0.0, 0.0, 1.715101541333881E9, 0.0, 2024-05-07 12:05:41.333
74.0, 29.59569829935208, -275.62314693443477, 112.50741036701947, -65.5697959731333, -0.04800000227987766, 1.0240000486373901, -0.17600000835955143, 0.0, 0.0, 0.0, 0.0, 0.0, 1.7151015413346012E9, 0.0, 2024-05-07 12:05:41.334
74.0, -88.6898574992083, -408.202600363642, -8.04452480468899, -178.327779637184, -0.04800000227987766, 1.0240000486373901, -0.17600000835955143, 0.0, 0.0, 0.0, 0.0, 0.0, 1.7151015413346093E9, 0.0, 2024-05-07 12:05:41.334
75.0, -17.687856840435416, -302.2100957194343, 31.063609031960368, -112.97302791150287, -0.04800000227987766, 1.0240000486373901, -0.17600000835955143, 0.0, 0.0, 0.0, 0.0, 0.0, 1.7151015413631687E9, 0.0, 2024-05-07 12:05:41.363
75.0, 66.91989985713735, -209.29228132031858, 179.32446297537535, -41.907448953483254, -0.04800000227987766, 1.0240000486373901, -0.17600000835955143, 0.0, 0.0, 0.0, 0.0, 0.0, 1.715101541363195E9, 0.0, 2024-05-07 12:05:41.363
76.0, -72.78406298765913, -379.2258555069566, -14.854882624000311, -138.68858000682667, -0.04800000227987766, 1.0240000486373901, -0.17600000835955143, 0.0, 0.0, 0.0, 0.0, 0.0, 1.7151015413632576E9, 0.0, 2024-05-07 12:05:41.363
76.0, -71.44891870347783, -369.52829492185265, 24.264470912516117, -159.56470155948773, -0.04800000227987766, 1.0240000486373901, -0.17600000835955143, 0.0, 0.0, 0.0, 0.0, 0.0, 1.7151015413632648E9, 0.0, 2024-05-07 12:05:41.363
77.0, 82.39934577373788, -223.5487799514085, 143.8440320957452, -7.526548660825938, -0.04800000227987766, 1.0240000486373901, -0.17600000835955143, 0.0, 0.0, 0.0, 0.0, 0.0, 1.7151015413926208E9, 0.0, 2024-05-07 12:05:41.392
77.0, -21.453936095815152, -321.65383558906615, 76.1855019973591, -107.71472857380286, -0.04800000227987766, 1.0240000486373901, -0.17600000835955143, 0.0, 0.0, 0.0, 0.0, 0.0, 1.7151015413926375E9, 0.0, 2024-05-07 12:05:41.392
78.0, -109.43508255342022, -390.0640855785459, -43.49503648467362, -173.26021519722417, -0.04800000227987766, 1.0240000486373901, -0.17600000835955143, 0.0, 0.0, 0.0, 0.0, 0.0, 1.7151015413930469E9, 0.0, 2024-05-07 12:05:41.393
78.0, 32.89055016031489, -260.0950823184103, 144.6219312865287, -54.58944970322773, -0.04800000227987766, 1.0240000486373901, -0.17600000835955143, 0.0, 0.0, 0.0, 0.0, 0.0, 1.715101541393058E9, 0.0, 2024-05-07 12:05:41.393
79.0, 18.787387427408248, -275.3538741376251, 90.05679093301296, -60.93232002807781, -0.04800000227987766, 1.0240000486373901, -0.17600000835955143, 0.0, 0.0, 0.0, 0.0, 0.0, 1.715101541393742E9, 0.0, 2024-05-07 12:05:41.393
79.0, -110.15314334491268, -402.54413173068315, 0.9985532881692052, -157.15994588797912, -0.04800000227987766, 1.0240000486373901, -0.17600000835955143, 0.0, 0.0, 0.0, 0.0, 0.0, 1.7151015413937583E9, 0.0, 2024-05-07 12:05:41.393
80.0, -18.907064225990325, -329.95641349069774, 56.22565593384206, -107.77830687304959, -0.04800000227987766, 1.0240000486373901, -0.17600000835955143, 0.0, 0.0, 0.0, 0.0, 0.0, 1.7151015413950949E9, 0.0, 2024-05-07 12:05:41.395
80.0, 77.2794227343984, -230.26938017178327, 151.82497860118747, -48.85992297111079, -0.04800000227987766, 1.0240000486373901, -0.17600000835955143, 0.0, 0.0, 0.0, 0.0, 0.0, 1.7151015413951108E9, 0.0, 2024-05-07 12:05:41.395
81.0, -80.78370899287984, -368.04355463944376, 28.030550167895854, -154.97210441390052, -0.04800000227987766, 1.008000047877431, -0.17600000835955143, 0.0, 0.0, 0.0, 0.0, 0.0, 1.7151015414226687E9, 0.0, 2024-05-07 12:05:41.422
81.0, -65.3828009753488, -362.987209899351, 8.83738359529525, -160.0583683536388, -0.04800000227987766, 1.008000047877431, -0.17600000835955143, 0.0, 0.0, 0.0, 0.0, 0.0, 1.715101541422686E9, 0.0, 2024-05-07 12:05:41.422
82.0, 77.1672257357277, -215.97174264118075, 176.96458610333502, -36.80248551396653, -0.04800000227987766, 1.008000047877431, -0.17600000835955143, 0.0, 0.0, 0.0, 0.0, 0.0, 1.715101541423498E9, 0.0, 2024-05-07 12:05:41.423
82.0, -30.108064593281597, -325.98089983779937, 66.02419381774962, -104.64801061013713, -0.04800000227987766, 1.008000047877431, -0.17600000835955143, 0.0, 0.0, 0.0, 0.0, 0.0, 1.7151015414235082E9, 0.0, 2024-05-07 12:05:41.423
83.0, -109.83525184867904, -396.68370850011706, 12.117275856435299, -204.58935712603852, -0.04800000227987766, 1.008000047877431, -0.17600000835955143, 0.0, 0.0, 0.0, 0.0, 0.0, 1.7151015414526696E9, 0.0, 2024-05-07 12:05:41.452
83.0, 56.64265477890149, -256.9722658554092, 124.70696402247995, -47.494859487283975, -0.04800000227987766, 1.008000047877431, -0.17600000835955143, 0.0, 0.0, 0.0, 0.0, 0.0, 1.7151015414526863E9, 0.0, 2024-05-07 12:05:41.452
84.0, 38.691134991589934, -273.4577448600903, 132.87116562575102, -76.8717736392282, -0.04800000227987766, 1.008000047877431, -0.17600000835955143, 0.0, 0.0, 0.0, 0.0, 0.0, 1.7151015414531584E9, 0.0, 2024-05-07 12:05:41.453
84.0, -94.37450543185696, -421.0865557109937, -19.009911474771798, -185.54578655166551, -0.04800000227987766, 1.008000047877431, -0.17600000835955143, 0.0, 0.0, 0.0, 0.0, 0.0, 1.7151015414531753E9, 0.0, 2024-05-07 12:05:41.453
85.0, -7.717283558566123, -335.69715992268175, 96.84096945263445, -114.28573279595003, -0.04800000227987766, 1.008000047877431, -0.17600000835955143, 0.0, 0.0, 0.0, 0.0, 0.0, 1.7151015414540508E9, 0.0, 2024-05-07 12:05:41.454
85.0, 89.08254699455574, -227.76738710142672, 163.46728716325015, -34.233174244407564, -0.04800000227987766, 1.008000047877431, -0.17600000835955143, 0.0, 0.0, 0.0, 0.0, 0.0, 1.715101541454065E9, 0.0, 2024-05-07 12:05:41.454
86.0, -65.80914957029745, -382.730141765438, 49.49009611364454, -158.08370117703453, -0.04800000227987766, 1.008000047877431, -0.17600000835955143, 0.0, 0.0, 0.0, 0.0, 0.0, 1.7151015414546676E9, 0.0, 2024-05-07 12:05:41.454
86.0, -63.72228539502248, -362.4337047059089, 34.63895338959992, -200.2959519769065, -0.04800000227987766, 1.008000047877431, -0.17600000835955143, 0.0, 0.0, 0.0, 0.0, 0.0, 1.7151015414546845E9, 0.0, 2024-05-07 12:05:41.454
87.0, 111.59674472780898, -197.78460915666074, 224.83904543612152, -86.10932652978227, -0.04800000227987766, 1.008000047877431, -0.17600000835955143, 0.0, 0.0, 0.0, 0.0, 0.0, 1.7151015414826603E9, 0.0, 2024-05-07 12:05:41.482
87.0, 16.375151955988258, -311.5561057087034, 71.6265639513731, -187.74858762556687, -0.04800000227987766, 1.008000047877431, -0.17600000835955143, 0.0, 0.0, 0.0, 0.0, 0.0, 1.715101541482678E9, 0.0, 2024-05-07 12:05:41.482
88.0, -83.30066166305915, -381.31271968223155, 56.43135043140501, -273.27635971223935, -0.04800000227987766, 1.008000047877431, -0.17600000835955143, 0.0, 0.0, 0.0, 0.0, 0.0, 1.7151015414832363E9, 0.0, 2024-05-07 12:05:41.483
88.0, 91.60697946464643, -241.28338554129004, 153.83330487739295, -125.32217756519094, -0.04800000227987766, 1.008000047877431, -0.17600000835955143, 0.0, 0.0, 0.0, 0.0, 0.0, 1.7151015414832451E9, 0.0, 2024-05-07 12:05:41.483
89.0, 57.4168140697293, -266.99145783670247, 182.70907243527472, -150.30096936924383, -0.04800000227987766, 1.008000047877431, -0.17600000835955143, 0.0, 0.0, 0.0, 0.0, 0.0, 1.7151015415127523E9, 0.0, 2024-05-07 12:05:41.512
89.0, -68.12788754282519, -403.73341991659254, 14.858622523956, -260.86737165926024, -0.04800000227987766, 1.008000047877431, -0.17600000835955143, 0.0, 0.0, 0.0, 0.0, 0.0, 1.715101541512775E9, 0.0, 2024-05-07 12:05:41.512
90.0, 14.464063078630716, -311.7318810066208, 127.73254308663309, -187.41947642946616, -0.04800000227987766, 1.008000047877431, -0.1600000075995922, 0.0, 0.0, 0.0, 0.0, 0.0, 1.7151015415131505E9, 0.0, 2024-05-07 12:05:41.513
90.0, 114.02019989909604, -228.4742281930521, 199.15341254044324, -129.07329722074792, -0.04800000227987766, 1.008000047877431, -0.1600000075995922, 0.0, 0.0, 0.0, 0.0, 0.0, 1.7151015415131624E9, 0.0, 2024-05-07 12:05:41.513
91.0, -41.58581755729392, -368.64567853230983, 81.60835693310946, -216.74403198203072, -0.04800000227987766, 1.0240000486373901, -0.1600000075995922, 0.0, 0.0, 0.0, 0.0, 0.0, 1.71510154151397E9, 0.0, 2024-05-07 12:05:41.513
91.0, -42.221600549761206, -358.7162441499531, 43.33048088662326, -223.3823544033803, -0.04800000227987766, 1.0240000486373901, -0.1600000075995922, 0.0, 0.0, 0.0, 0.0, 0.0, 1.7151015415139966E9, 0.0, 2024-05-07 12:05:41.513
92.0, 111.78747962554917, -209.2062636213377, 237.12087689060718, -78.62578671844676, -0.06400000303983688, 1.0240000486373901, -0.1600000075995922, 0.0, 0.0, 0.0, 0.0, 0.0, 1.7151015415150745E9, 0.0, 2024-05-07 12:05:41.515
92.0, 5.664078482892364, -320.4757671030238, 86.15607527922839, -175.34333947254345, -0.06400000303983688, 1.0240000486373901, -0.1600000075995922, 0.0, 0.0, 0.0, 0.0, 0.0, 1.7151015415151043E9, 0.0, 2024-05-07 12:05:41.515
93.0, -65.28556357650086, -385.05261963792145, 52.77746817469597, -270.68834894290194, -0.06400000303983688, 1.0240000486373901, -0.1600000075995922, 0.0, 0.0, 0.0, 0.0, 0.0, 1.715101541573102E9, 0.0, 2024-05-07 12:05:41.573
93.0, 72.30909569328651, -246.3359903814271, 158.5979374209419, -116.05096557503566, -0.06400000303983688, 1.0240000486373901, -0.1600000075995922, 0.0, 0.0, 0.0, 0.0, 0.0, 1.7151015415731428E9, 0.0, 2024-05-07 12:05:41.573
94.0, 54.780184600967914, -264.560522865504, 153.89688317663968, -114.6634626914747, -0.06400000303983688, 1.0240000486373901, -0.1600000075995922, 0.0, 0.0, 0.0, 0.0, 0.0, 1.7151015415732567E9, 0.0, 2024-05-07 12:05:41.573
94.0, -79.93101180298254, -399.62326986528933, 2.7600461672991514, -219.36196195101365, -0.06400000303983688, 1.0240000486373901, -0.1600000075995922, 0.0, 0.0, 0.0, 0.0, 0.0, 1.7151015415732677E9, 0.0, 2024-05-07 12:05:41.573
95.0, 1.6324663306586444, -312.30782559979707, 81.62331653293222, -158.04630217747763, -0.06400000303983688, 1.0240000486373901, -0.1600000075995922, 0.0, 0.0, 0.0, 0.0, 0.0, 1.7151015415741389E9, 0.0, 2024-05-07 12:05:41.574
95.0, 80.93704489106312, -229.67099617887288, 177.92574039194733, -88.80579439783469, -0.06400000303983688, 1.0240000486373901, -0.1600000075995922, 0.0, 0.0, 0.0, 0.0, 0.0, 1.7151015415741537E9, 0.0, 2024-05-07 12:05:41.574
96.0, -60.70044623082504, -367.74436264298856, 40.424578621052206, -188.8069793130271, -0.06400000303983688, 1.0240000486373901, -0.1600000075995922, 0.0, 0.0, 0.0, 0.0, 0.0, 1.7151015415745292E9, 0.0, 2024-05-07 12:05:41.574
96.0, -79.6879183058627, -366.9178447527811, 17.555090392008424, -209.98229286214337, -0.06400000303983688, 1.0240000486373901, -0.1600000075995922, 0.0, 0.0, 0.0, 0.0, 0.0, 1.715101541574551E9, 0.0, 2024-05-07 12:05:41.574
97.0, 70.349388116505, -219.45358949992806, 198.28949565067887, -48.12690257979557, -0.06400000303983688, 1.0240000486373901, -0.1600000075995922, 0.0, 0.0, 0.0, 0.0, 0.0, 1.7151015415750759E9, 0.0, 2024-05-07 12:05:41.575
97.0, -48.86740277102217, -326.6690414296463, 58.05820691213012, -171.6183991166763, -0.06400000303983688, 1.0240000486373901, -0.1600000075995922, 0.0, 0.0, 0.0, 0.0, 0.0, 1.715101541575092E9, 0.0, 2024-05-07 12:05:41.575
98.0, -109.28174665523693, -397.76079968735576, 12.50248555187136, -213.35568262217566, -0.06400000303983688, 1.0240000486373901, -0.1600000075995922, 0.0, 0.0, 0.0, 0.0, 0.0, 1.71510154157601E9, 0.0, 2024-05-07 12:05:41.576
98.0, 30.34367829049006, -241.79201193526387, 133.78370121493936, -90.88143887324259, -0.06400000303983688, 1.0240000486373901, -0.1600000075995922, 0.0, 0.0, 0.0, 0.0, 0.0, 1.7151015415760274E9, 0.0, 2024-05-07 12:05:41.576
