%OpenBCI Raw EXG Data
%Number of channels = 4
%Sample Rate = 200 Hz
%Board = OpenBCI_GUI$BoardGanglionNative
Sample Index, EXG Channel 0, EXG Channel 1, EXG Channel 2, EXG Channel 3, Accel Channel 0, Accel Channel 1, Accel Channel 2, Other, Other, Other, Other, Other, Timestamp, Other, Timestamp (Formatted)
93.0, -129.08264697063714, -132.19050383381546, -85.15752199105918, -143.2531279027462, 0.0, 0.0, 0.0, 0.0, 0.0, 0.0, 0.0, 0.0, 1.715101548323517E9, 0.0, 2024-05-07 12:05:48.323
93.0, -92.71959970146418, -79.20360126160085, -90.66639462579042, -71.3685108544305, 0.0, 0.0, 0.0, 0.0, 0.0, 0.0, 0.0, 0.0, 1.7151015483235364E9, 0.0, 2024-05-07 12:05:48.323
94.0, 33.28136970568448, 48.3569064270705, 78.24992677289993, 22.15142743755132, 0.0, 0.0, 0.0, 0.0, 0.0, 0.0, 0.0, 0.0, 1.715101548323733E9, 0.0, 2024-05-07 12:05:48.323
94.0, -81.855190330185, -83.1865947144106, -105.77559044677764, -88.05594445671886, 0.0, 0.0, 0.0, 0.0, 0.0, 0.0, 0.0, 0.0, 1.7151015483237514E9, 0.0, 2024-05-07 12:05:48.323
95.0, -140.0704730404541, -115.13282013591379, -82.7452865196392, -123.6149132354185, 0.0, 0.0, 0.0, 0.0, 0.0, 0.0, 0.0, 0.0, 1.715101548353554E9, 0.0, 2024-05-07 12:05:48.353
95.0, 20.793843753635883, 24.94139280449599, 14.753905325196683, -2.247679873369634, 0.0, 0.0, 0.0, 0.0, 0.0, 0.0, 0.0, 0.0, 1.7151015483535695E9, 0.0, 2024-05-07 12:05:48.353
96.0, -43.39405918586999, -42.75453629344702, -14.974559422582388, -44.72172367013991, 0.0, 0.0, 0.0, 0.0, 0.0, 0.0, 0.0, 0.0, 1.7151015483539948E9, 0.0, 2024-05-07 12:05:48.353
96.0, -137.97986896522343, -134.24370890948921, -163.8562367586419, -136.71578278020024, 0.0, 0.0, 0.0, 0.0, 0.0, 0.0, 0.0, 0.0, 1.7151015483540053E9, 0.0, 2024-05-07 12:05:48.354
97.0, -20.251558260060847, -31.246864129789174, 3.908195453695953, -42.15989220049232, 0.0, 0.0, 0.0, 0.0, 0.0, 0.0, 0.0, 0.0, 1.7151015483547485E9, 0.0, 2024-05-07 12:05:48.354
97.0, -8.897221994586289, 7.760292408056557, -3.9268949534744024, -7.0235321167856455, 0.0, 0.0, 0.0, 0.0, 0.0, 0.0, 0.0, 0.0, 1.715101548354761E9, 0.0, 2024-05-07 12:05:48.354
98.0, -142.67344340961426, -123.67101173475385, -82.98464011680335, -134.12403211090714, 0.0, 0.0, 0.0, 0.0, 0.0, 0.0, 0.0, 0.0, 1.7151015483557985E9, 0.0, 2024-05-07 12:05:48.355
98.0, -119.96477087866515, -79.8917428534478, -71.39469015412033, -100.83518260531127, 0.0, 0.0, 0.0, 0.0, 0.0, 0.0, 0.0, 0.0, 1.7151015483558195E9, 0.0, 2024-05-07 12:05:48.355
99.0, 32.72786451224238, 47.724863334558904, 80.49386674631387, 10.512858775444329, 0.0, 0.0, 0.0, 0.0, 0.0, 0.0, 0.0, 0.0, 1.7151015484128792E9, 0.0, 2024-05-07 12:05:48.412
99.0, -109.56410910189152, -100.87632150482386, -106.46373203862458, -97.68618684262037, 0.0, 0.0, 0.0, 0.0, 0.0, 0.0, 0.0, 0.0, 1.7151015484128952E9, 0.0, 2024-05-07 12:05:48.412
100.0, -152.662716191262, -127.67270468734205, -90.18768743146211, -134.92437070142478, 0.0, 0.0, -0.1600000075995922, 0.0, 0.0, 0.0, 0.0, 0.0, 1.7151015484729998E9, 0.0, 2024-05-07 12:05:48.472
100.0, 19.6756136668846, 27.166633278131485, 33.87975369859487, -11.402954964898527, 0.0, 0.0, -0.1600000075995922, 0.0, 0.0, 0.0, 0.0, 0.0, 1.715101548473019E9, 0.0, 2024-05-07 12:05:48.473
0.0, -27.4209464751184, -312.58083829656243, 68.74871093546972, -97.19065009849146, 0.0, 0.0, -0.1600000075995922, 0.0, 0.0, 0.0, 0.0, 0.0, 1.7151015484733777E9, 0.0, 2024-05-07 12:05:48.473
1.0, -125.10713331773877, -413.50577850081027, -16.966056148987263, -194.68610204337165, 0.0, 1.0240000486373901, -0.1600000075995922, 0.0, 0.0, 0.0, 0.0, 0.0, 1.7151015484741848E9, 0.0, 2024-05-07 12:05:48.474
1.0, 0.5086263939738274, -295.75502839591354, 96.8802384021692, -90.39151197904721, 0.0, 1.0240000486373901, -0.1600000075995922, 0.0, 0.0, 0.0, 0.0, 0.0, 1.715101548474198E9, 0.0, 2024-05-07 12:05:48.474
2.0, 25.78661019448191, -269.73654440417886, 124.8920890702866, -56.96054627513513, -0.04800000227987766, 1.0240000486373901, -0.1600000075995922, 0.0, 0.0, 0.0, 0.0, 0.0, 1.715101548474713E9, 0.0, 2024-05-07 12:05:48.474
2.0, -112.95245846174657, -410.06133064161986, 10.570827224757522, -180.05935331666842, -0.04800000227987766, 1.0240000486373901, -0.1600000075995922, 0.0, 0.0, 0.0, 0.0, 0.0, 1.7151015484747295E9, 0.0, 2024-05-07 12:05:48.474
3.0, -69.92864937148988, -370.1416385145858, 42.98080024076626, -132.1213156846352, -0.04800000227987766, 1.0240000486373901, -0.1600000075995922, 0.0, 0.0, 0.0, 0.0, 0.0, 1.7151015484754462E9, 0.0, 2024-05-07 12:05:48.475
3.0, 65.2537744268775, -235.64361640810966, 169.2884414442815, -26.177429739851505, -0.04800000227987766, 1.0240000486373901, -0.1600000075995922, 0.0, 0.0, 0.0, 0.0, 0.0, 1.7151015484754615E9, 0.0, 2024-05-07 12:05:48.475
4.0, -72.82333193719387, -378.79202711209655, 20.447903007734567, -133.90524796349928, -0.04800000227987766, 1.0240000486373901, -0.1600000075995922, 0.0, 0.0, 0.0, 0.0, 0.0, 1.7151015484761388E9, 0.0, 2024-05-07 12:05:48.476
4.0, -112.95993826165795, -404.7431929046288, -15.787987662944943, -145.82056922232732, -0.04800000227987766, 1.0240000486373901, -0.1600000075995922, 0.0, 0.0, 0.0, 0.0, 0.0, 1.7151015484761524E9, 0.0, 2024-05-07 12:05:48.476
5.0, 30.857914534397423, -251.8261635163799, 146.22073851758614, -18.67893032869324, -0.04800000227987766, 1.0240000486373901, -0.1600000075995922, 0.0, 0.0, 0.0, 0.0, 0.0, 1.715101548477185E9, 0.0, 2024-05-07 12:05:48.477
5.0, -24.372928011231124, -336.32920301519334, 71.07118880795315, -67.87731424579397, -0.04800000227987766, 1.0240000486373901, -0.1600000075995922, 0.0, 0.0, 0.0, 0.0, 0.0, 1.715101548477196E9, 0.0, 2024-05-07 12:05:48.477
10.0, 135.8406461905688, -179.01779117900878, 267.1466636848636, 57.169980672653764, -0.04800000227987766, 1.0240000486373901, -0.1600000075995922, 0.0, 0.0, 0.0, 0.0, 0.0, 1.71510154850307E9, 0.0, 2024-05-07 12:05:48.503
10.0, 55.313120344653726, -248.06008426100016, 161.96571733104065, 8.439084250014275, -0.04800000227987766, 1.0240000486373901, -0.1600000075995922, 0.0, 0.0, 0.0, 0.0, 0.0, 1.7151015485030892E9, 0.0, 2024-05-07 12:05:48.503
11.0, -32.72412461228669, -349.78162315580994, 92.98326264834031, -89.93150428449735, -0.04800000227987766, 1.008000047877431, -0.1600000075995922, 0.0, 0.0, 0.0, 0.0, 0.0, 1.715101548504153E9, 0.0, 2024-05-07 12:05:48.504
11.0, 82.10202372726053, -233.1117041381076, 173.85859919013456, 0.3870796454139054, -0.04800000227987766, 1.008000047877431, -0.1600000075995922, 0.0, 0.0, 0.0, 0.0, 0.0, 1.7151015485041704E9, 0.0, 2024-05-07 12:05:48.504
12.0, 102.99684477970004, -206.18442445714027, 246.3602997311391, 52.24079253105447, -0.03200000151991844, 1.008000047877431, -0.1600000075995922, 0.0, 0.0, 0.0, 0.0, 0.0, 1.715101548504957E9, 0.0, 2024-05-07 12:05:48.504
12.0, -26.14564059022814, -359.9878101348877, 65.10230847867206, -91.60697946464643, -0.03200000151991844, 1.008000047877431, -0.1600000075995922, 0.0, 0.0, 0.0, 0.0, 0.0, 1.7151015485049708E9, 0.0, 2024-05-07 12:05:48.504
13.0, 8.321277401410043, -316.0290260557085, 170.01772193564102, -38.54901879327372, -0.03200000151991844, 1.008000047877431, -0.1600000075995922, 0.0, 0.0, 0.0, 0.0, 0.0, 1.7151015485331335E9, 0.0, 2024-05-07 12:05:48.533
13.0, 145.91219677124172, -172.75719865318388, 231.47175800753757, 52.42778752883896, -0.03200000151991844, 1.008000047877431, -0.1600000075995922, 0.0, 0.0, 0.0, 0.0, 0.0, 1.7151015485331607E9, 0.0, 2024-05-07 12:05:48.533
14.0, 13.826410136185586, -308.72874134220183, 145.98512482037768, -46.79175829561427, -0.03200000151991844, 1.008000047877431, -0.1600000075995922, 0.0, 0.0, 0.0, 0.0, 0.0, 1.7151015485334485E9, 0.0, 2024-05-07 12:05:48.533
14.0, -29.32829545252025, -341.39676745515317, 88.5814004004933, -98.74644848005846, -0.03200000151991844, 1.008000047877431, -0.1600000075995922, 0.0, 0.0, 0.0, 0.0, 0.0, 1.715101548533468E9, 0.0, 2024-05-07 12:05:48.533
15.0, 137.8826315663755, -192.9414387140423, 289.3354901219718, 37.486887205857784, -0.03200000151991844, 1.008000047877431, -0.1600000075995922, 0.0, 0.0, 0.0, 0.0, 0.0, 1.7151015485345435E9, 0.0, 2024-05-07 12:05:48.534
15.0, 83.51196601055562, -272.70976486895233, 181.45433600014076, -5.04325509024784, -0.03200000151991844, 1.008000047877431, -0.1600000075995922, 0.0, 0.0, 0.0, 0.0, 0.0, 1.7151015485345678E9, 0.0, 2024-05-07 12:05:48.534
16.0, -13.055990745313466, -358.67510525044054, 115.37778358301148, -111.22275473223999, -0.03200000151991844, 1.008000047877431, -0.1600000075995922, 0.0, 0.0, 0.0, 0.0, 0.0, 1.7151015485631027E9, 0.0, 2024-05-07 12:05:48.563
16.0, 94.56711027957499, -248.17602115962654, 186.2900266428478, 4.575767595786601, -0.03200000151991844, 1.008000047877431, -0.1600000075995922, 0.0, 0.0, 0.0, 0.0, 0.0, 1.7151015485631309E9, 0.0, 2024-05-07 12:05:48.563
17.0, 123.55881473608315, -207.10817974619567, 267.4869945808314, 38.679915291722864, -0.03200000151991844, 1.008000047877431, -0.1600000075995922, 0.0, 0.0, 0.0, 0.0, 0.0, 1.7151015485633626E9, 0.0, 2024-05-07 12:05:48.563
17.0, -21.414667146280408, -337.8550821971148, 71.71445160033181, -96.60348580544814, -0.03200000151991844, 1.008000047877431, -0.1600000075995922, 0.0, 0.0, 0.0, 0.0, 0.0, 1.7151015485633743E9, 0.0, 2024-05-07 12:05:48.563
18.0, 20.834982653148472, -305.93877597525716, 163.5738743119873, -45.35563671262935, -0.03200000151991844, 1.008000047877431, -0.1600000075995922, 0.0, 0.0, 0.0, 0.0, 0.0, 1.7151015485641463E9, 0.0, 2024-05-07 12:05:48.564
18.0, 146.16650996822864, -164.783731947653, 257.30698690144345, 69.28351662913337, -0.03200000151991844, 1.008000047877431, -0.1600000075995922, 0.0, 0.0, 0.0, 0.0, 0.0, 1.715101548564158E9, 0.0, 2024-05-07 12:05:48.564
19.0, 15.415867617353797, -303.72475520148873, 141.3775680749677, -54.17432080814615, -0.03200000151991844, 1.008000047877431, -0.1600000075995922, 0.0, 0.0, 0.0, 0.0, 0.0, 1.7151015485931995E9, 0.0, 2024-05-07 12:05:48.593
19.0, -11.724586361087859, -333.47191944904625, 84.99483634298667, -79.84499410400167, -0.03200000151991844, 1.008000047877431, -0.1600000075995922, 0.0, 0.0, 0.0, 0.0, 0.0, 1.7151015485932364E9, 0.0, 2024-05-07 12:05:48.593
20.0, 134.15769121050835, -180.35293546319008, 290.02737161377445, 34.51740664104, -0.03200000151991844, 1.008000047877431, -0.17600000835955143, 0.0, 0.0, 0.0, 0.0, 0.0, 1.7151015485934567E9, 0.0, 2024-05-07 12:05:48.593
20.0, 59.67758359294385, -250.1581681361422, 181.64507089788094, -5.1704116887412965, -0.03200000151991844, 1.008000047877431, -0.17600000835955143, 0.0, 0.0, 0.0, 0.0, 0.0, 1.7151015485934808E9, 0.0, 2024-05-07 12:05:48.593
21.0, -37.29802225809544, -354.7295107971877, 122.31529800081626, -102.81545963184908, -0.03200000151991844, 1.008000047877431, -0.17600000835955143, 0.0, 0.0, 0.0, 0.0, 0.0, 1.7151015485943103E9, 0.0, 2024-05-07 12:05:48.594
21.0, 93.14220839645714, -240.9318349454552, 192.90964956441894, 7.45923046162352, -0.03200000151991844, 1.008000047877431, -0.17600000835955143, 0.0, 0.0, 0.0, 0.0, 0.0, 1.7151015485943244E9, 0.0, 2024-05-07 12:05:48.594
22.0, 118.30799519829452, -204.36683307867497, 267.52813348034397, 34.0723585463129, -0.06400000303983688, 1.008000047877431, -0.17600000835955143, 0.0, 0.0, 0.0, 0.0, 0.0, 1.7151015486230145E9, 0.0, 2024-05-07 12:05:48.623
22.0, -16.702393202111125, -336.29554391559213, 75.02426306111738, -96.93259700154886, -0.06400000303983688, 1.008000047877431, -0.17600000835955143, 0.0, 0.0, 0.0, 0.0, 0.0, 1.7151015486230297E9, 0.0, 2024-05-07 12:05:48.623
23.0, 22.794690229929984, -291.30080754868686, 180.67643680935726, -53.987325810361654, -0.06400000303983688, 1.008000047877431, -0.17600000835955143, 0.0, 0.0, 0.0, 0.0, 0.0, 1.7151015486235695E9, 0.0, 2024-05-07 12:05:48.623
23.0, 147.00798745825887, -160.13877620268613, 241.1281796931289, 47.850149983074516, -0.06400000303983688, 1.008000047877431, -0.17600000835955143, 0.0, 0.0, 0.0, 0.0, 0.0, 1.7151015486235852E9, 0.0, 2024-05-07 12:05:48.623
24.0, 13.751612137071788, -308.4482488455251, 148.5656557898037, -61.80371671775356, -0.06400000303983688, 1.008000047877431, -0.17600000835955143, 0.0, 0.0, 0.0, 0.0, 0.0, 1.715101548624232E9, 0.0, 2024-05-07 12:05:48.624
24.0, -19.211866072379053, -330.7866712808609, 67.21161205368116, -86.6890110229142, -0.06400000303983688, 1.008000047877431, -0.17600000835955143, 0.0, 0.0, 0.0, 0.0, 0.0, 1.7151015486242416E9, 0.0, 2024-05-07 12:05:48.624
25.0, 137.35156577266753, -195.7201843811199, 305.0056709363125, 26.43174293683842, -0.06400000303983688, 1.008000047877431, -0.17600000835955143, 0.0, 0.0, 0.0, 0.0, 0.0, 1.7151015486531763E9, 0.0, 2024-05-07 12:05:48.653
25.0, 66.22614841535687, -268.44627891946584, 182.78948028432205, -6.430757973808795, -0.06400000303983688, 1.008000047877431, -0.17600000835955143, 0.0, 0.0, 0.0, 0.0, 0.0, 1.715101548653196E9, 0.0, 2024-05-07 12:05:48.653
26.0, -35.6823854772374, -348.1921656746417, 124.6714349729009, -129.1144361202605, -0.06400000303983688, 1.008000047877431, -0.17600000835955143, 0.0, 0.0, 0.0, 0.0, 0.0, 1.7151015486533716E9, 0.0, 2024-05-07 12:05:48.653
26.0, 81.43258163519204, -229.05391268618405, 193.90072305267677, 8.427864550147206, -0.06400000303983688, 1.008000047877431, -0.17600000835955143, 0.0, 0.0, 0.0, 0.0, 0.0, 1.7151015486533844E9, 0.0, 2024-05-07 12:05:48.653
27.0, 103.99913796782494, -207.68412433937192, 271.61584413191304, 30.915882983710617, -0.06400000303983688, 1.008000047877431, -0.17600000835955143, 0.0, 0.0, 0.0, 0.0, 0.0, 1.7151015486541595E9, 0.0, 2024-05-07 12:05:48.654
27.0, -32.18557901866734, -348.62973396945745, 83.44651776133105, -95.90786441368982, -0.06400000303983688, 1.008000047877431, -0.17600000835955143, 0.0, 0.0, 0.0, 0.0, 0.0, 1.7151015486541693E9, 0.0, 2024-05-07 12:05:48.654
28.0, 10.793351272121072, -288.63425888027996, 163.86558650853112, -61.934613216202706, -0.06400000303983688, 1.008000047877431, -0.17600000835955143, 0.0, 0.0, 0.0, 0.0, 0.0, 1.7151015486832817E9, 0.0, 2024-05-07 12:05:48.683
28.0, 159.42071541119367, -153.42191588226706, 260.59809886245057, 40.303031872492284, -0.06400000303983688, 1.008000047877431, -0.17600000835955143, 0.0, 0.0, 0.0, 0.0, 0.0, 1.7151015486832988E9, 0.0, 2024-05-07 12:05:48.683
29.0, 16.03295111004263, -305.6246243789792, 148.62175428913906, -67.36494795186445, -0.06400000303983688, 1.008000047877431, -0.17600000835955143, 0.0, 0.0, 0.0, 0.0, 0.0, 1.7151015486833882E9, 0.0, 2024-05-07 12:05:48.683
29.0, -1.6268564807251096, -330.8240702804178, 88.60383980022743, -92.9159444491379, -0.06400000303983688, 1.008000047877431, -0.17600000835955143, 0.0, 0.0, 0.0, 0.0, 0.0, 1.715101548683395E9, 0.0, 2024-05-07 12:05:48.683
30.0, 145.74764117319137, -190.55164264235646, 265.76290070125833, 41.054751763585955, -0.06400000303983688, 1.008000047877431, -0.17600000835955143, 0.0, 0.0, 0.0, 0.0, 0.0, 1.7151015486842015E9, 0.0, 2024-05-07 12:05:48.684
30.0, 63.72415534500033, -249.73181954119354, 168.09167345846072, -16.535967654082924, -0.06400000303983688, 1.008000047877431, -0.17600000835955143, 0.0, 0.0, 0.0, 0.0, 0.0, 1.7151015486842124E9, 0.0, 2024-05-07 12:05:48.684
31.0, -38.483570544049144, -355.0661017931998, 96.27063470939174, -130.65527490200475, -0.06400000303983688, 1.008000047877431, -0.17600000835955143, 0.0, 0.0, 0.0, 0.0, 0.0, 1.7151015487430336E9, 0.0, 2024-05-07 12:05:48.743
31.0, 84.99296639300883, -241.7845321353525, 190.16830289689824, -2.4776837206445634, -0.06400000303983688, 1.008000047877431, -0.17600000835955143, 0.0, 0.0, 0.0, 0.0, 0.0, 1.7151015487430508E9, 0.0, 2024-05-07 12:05:48.743
32.0, 122.59018064755946, -199.65829903446138, 251.6148591688834, 7.8369603571482, -0.06400000303983688, 1.008000047877431, -0.17600000835955143, 0.0, 0.0, 0.0, 0.0, 0.0, 1.7151015487433937E9, 0.0, 2024-05-07 12:05:48.743
32.0, -21.968172339722514, -341.2696108566597, 66.51225076196715, -76.40428614476696, -0.06400000303983688, 1.008000047877431, -0.17600000835955143, 0.0, 0.0, 0.0, 0.0, 0.0, 1.7151015487434E9, 0.0, 2024-05-07 12:05:48.743
33.0, 19.885048064403236, -298.3168598655611, 136.9383068275638, -63.632527796085924, -0.06400000303983688, 1.008000047877431, -0.17600000835955143, 0.0, 0.0, 0.0, 0.0, 0.0, 1.7151015487440224E9, 0.0, 2024-05-07 12:05:48.744
33.0, 168.12720250803977, -159.13648301456124, 252.64707155665383, 53.84894951200113, -0.06400000303983688, 1.008000047877431, -0.17600000835955143, 0.0, 0.0, 0.0, 0.0, 0.0, 1.7151015487440286E9, 0.0, 2024-05-07 12:05:48.744
34.0, 15.898314711637795, -308.65020344313234, 152.33921484509483, -54.59318960318342, -0.06400000303983688, 1.008000047877431, -0.17600000835955143, 0.0, 0.0, 0.0, 0.0, 0.0, 1.7151015487446673E9, 0.0, 2024-05-07 12:05:48.744
34.0, -11.488972663879395, -342.4289798429236, 102.70700253313407, -98.3238397850655, -0.06400000303983688, 1.008000047877431, -0.17600000835955143, 0.0, 0.0, 0.0, 0.0, 0.0, 1.7151015487446733E9, 0.0, 2024-05-07 12:05:48.744
35.0, 148.24215444363654, -193.99235060159117, 262.20251594344154, 44.91058861790225, -0.06400000303983688, 1.008000047877431, -0.17600000835955143, 0.0, 0.0, 0.0, 0.0, 0.0, 1.7151015487453215E9, 0.0, 2024-05-07 12:05:48.745
35.0, 100.7529048062861, -244.02847210876644, 182.07889929274097, -12.28744130441919, -0.06400000303983688, 1.008000047877431, -0.17600000835955143, 0.0, 0.0, 0.0, 0.0, 0.0, 1.7151015487453277E9, 0.0, 2024-05-07 12:05:48.745
36.0, -27.71265867166221, -346.17635959852487, 86.0607078303583, -105.44834920065477, -0.06400000303983688, 1.008000047877431, -0.17600000835955143, 0.0, 0.0, 0.0, 0.0, 0.0, 1.715101548746228E9, 0.0, 2024-05-07 12:05:48.746
36.0, 98.66230073105544, -236.45517469849437, 190.6320504914038, -1.7110042297281325, -0.06400000303983688, 1.008000047877431, -0.17600000835955143, 0.0, 0.0, 0.0, 0.0, 0.0, 1.7151015487462337E9, 0.0, 2024-05-07 12:05:48.746
37.0, 110.60380128957331, -201.27019591536373, 230.2712501217611, 18.903324326034635, -0.06400000303983688, 1.008000047877431, -0.17600000835955143, 0.0, 0.0, 0.0, 0.0, 0.0, 1.7151015487729108E9, 0.0, 2024-05-07 12:05:48.772
37.0, -21.826056141406298, -336.7929506096989, 90.66078477585688, -81.09786058915779, -0.06400000303983688, 1.008000047877431, -0.17600000835955143, 0.0, 0.0, 0.0, 0.0, 0.0, 1.71510154877293E9, 0.0, 2024-05-07 12:05:48.772
38.0, 25.30042320024222, -279.2059710919857, 138.72971890633926, -57.88430156419054, -0.06400000303983688, 1.008000047877431, -0.17600000835955143, 0.0, 0.0, 0.0, 0.0, 0.0, 1.7151015487740648E9, 0.0, 2024-05-07 12:05:48.774
38.0, 165.84586353506893, -146.91075005941093, 262.4792685401626, 83.21090406412259, -0.06400000303983688, 1.008000047877431, -0.17600000835955143, 0.0, 0.0, 0.0, 0.0, 0.0, 1.7151015487740767E9, 0.0, 2024-05-07 12:05:48.774
39.0, 18.14225468505174, -301.16666363179684, 116.53341266931966, -65.80166977038607, -0.06400000303983688, 1.008000047877431, -0.17600000835955143, 0.0, 0.0, 0.0, 0.0, 0.0, 1.7151015487748346E9, 0.0, 2024-05-07 12:05:48.774
39.0, 2.8722431659698486, -330.7904111808166, 103.56717952294275, -87.03308181883767, -0.06400000303983688, 1.008000047877431, -0.17600000835955143, 0.0, 0.0, 0.0, 0.0, 0.0, 1.7151015487748432E9, 0.0, 2024-05-07 12:05:48.774
40.0, 148.59744493942708, -177.99679849110544, 227.03249676013365, 35.26538663217798, -0.06400000303983688, 1.008000047877431, -0.17600000835955143, 0.0, 0.0, 0.0, 0.0, 0.0, 1.7151015488031878E9, 0.0, 2024-05-07 12:05:48.803
40.0, 75.5160599052906, -246.3434701813385, 181.5814925986342, -20.71717580454424, -0.06400000303983688, 1.008000047877431, -0.17600000835955143, 0.0, 0.0, 0.0, 0.0, 0.0, 1.7151015488032172E9, 0.0, 2024-05-07 12:05:48.803
41.0, -28.673812960274518, -345.5405766060576, 68.32984214043245, -95.99388211267069, -0.06400000303983688, 1.0240000486373901, -0.17600000835955143, 0.0, 0.0, 0.0, 0.0, 0.0, 1.7151015488035097E9, 0.0, 2024-05-07 12:05:48.803
41.0, 91.6387686142698, -205.79173496179283, 186.38352414174005, -11.801254310179502, -0.06400000303983688, 1.0240000486373901, -0.17600000835955143, 0.0, 0.0, 0.0, 0.0, 0.0, 1.7151015488035295E9, 0.0, 2024-05-07 12:05:48.803
42.0, 124.29931492730975, -190.8695341385901, 199.12910319073126, 25.792220044415444, -0.04800000227987766, 1.0240000486373901, -0.17600000835955143, 0.0, 0.0, 0.0, 0.0, 0.0, 1.715101548804274E9, 0.0, 2024-05-07 12:05:48.804
42.0, -15.32237011846155, -330.6856939820573, 77.56365513103083, -96.52494790637866, -0.04800000227987766, 1.0240000486373901, -0.17600000835955143, 0.0, 0.0, 0.0, 0.0, 0.0, 1.7151015488042836E9, 0.0, 2024-05-07 12:05:48.804
43.0, 23.39681412279606, -286.2556825084612, 109.48370125284418, -55.64036159077659, -0.04800000227987766, 1.0240000486373901, -0.17600000835955143, 0.0, 0.0, 0.0, 0.0, 0.0, 1.7151015488329284E9, 0.0, 2024-05-07 12:05:48.832
43.0, 168.5273718032986, -163.01101936865598, 263.9602689226158, 51.18614074354991, -0.04800000227987766, 1.0240000486373901, -0.17600000835955143, 0.0, 0.0, 0.0, 0.0, 0.0, 1.7151015488329444E9, 0.0, 2024-05-07 12:05:48.832
44.0, 25.71181219536811, -290.41445125918835, 115.13842998584732, -54.42489410517737, -0.04800000227987766, 1.0240000486373901, -0.17600000835955143, 0.0, 0.0, 0.0, 0.0, 0.0, 1.7151015488333633E9, 0.0, 2024-05-07 12:05:48.833
44.0, -4.491619846783578, -326.02203873731196, 96.31177360890433, -78.71554431738332, -0.04800000227987766, 1.0240000486373901, -0.17600000835955143, 0.0, 0.0, 0.0, 0.0, 0.0, 1.715101548833376E9, 0.0, 2024-05-07 12:05:48.833
45.0, 148.08507864549756, -168.68818750139326, 232.30575569765642, 30.36985759017989, -0.04800000227987766, 1.0240000486373901, -0.17600000835955143, 0.0, 0.0, 0.0, 0.0, 0.0, 1.715101548863244E9, 0.0, 2024-05-07 12:05:48.863
45.0, 89.23401294276118, -233.2912193359807, 201.93776805745438, -10.208056929055601, -0.04800000227987766, 1.0240000486373901, -0.17600000835955143, 0.0, 0.0, 0.0, 0.0, 0.0, 1.7151015488632703E9, 0.0, 2024-05-07 12:05:48.863
46.0, -21.74003844242543, -362.0335354106501, 65.96248546848074, -105.44834920065477, -0.04800000227987766, 1.0240000486373901, -0.17600000835955143, 0.0, 0.0, 0.0, 0.0, 0.0, 1.7151015488633552E9, 0.0, 2024-05-07 12:05:48.863
46.0, 112.19325877074152, -218.1782836150378, 220.92898003244773, 5.622939583379775, -0.04800000227987766, 1.0240000486373901, -0.17600000835955143, 0.0, 0.0, 0.0, 0.0, 0.0, 1.7151015488633673E9, 0.0, 2024-05-07 12:05:48.863
47.0, 144.38631758932024, -208.45454373024404, 231.69989190483466, 21.92516349023208, -0.04800000227987766, 1.0240000486373901, -0.17600000835955143, 0.0, 0.0, 0.0, 0.0, 0.0, 1.7151015488640468E9, 0.0, 2024-05-07 12:05:48.864
47.0, 12.229472855105996, -330.76797178108245, 122.2255404018797, -118.50433994596824, -0.04800000227987766, 1.0240000486373901, -0.17600000835955143, 0.0, 0.0, 0.0, 0.0, 0.0, 1.7151015488640735E9, 0.0, 2024-05-07 12:05:48.864
48.0, 71.54802605230361, -294.78265440743417, 136.77749112946913, -61.02207762701437, -0.04800000227987766, 1.0240000486373901, -0.17600000835955143, 0.0, 0.0, 0.0, 0.0, 0.0, 1.7151015488648713E9, 0.0, 2024-05-07 12:05:48.864
48.0, 194.21674459893256, -140.35096553713083, 301.62480137636885, 34.622123839799315, -0.04800000227987766, 1.0240000486373901, -0.17600000835955143, 0.0, 0.0, 0.0, 0.0, 0.0, 1.7151015488648808E9, 0.0, 2024-05-07 12:05:48.864
49.0, 61.91030386649072, -290.78844125475734, 142.66783355968073, -110.52713334048167, -0.04800000227987766, 1.0240000486373901, -0.17600000835955143, 0.0, 0.0, 0.0, 0.0, 0.0, 1.7151015488929918E9, 0.0, 2024-05-07 12:05:48.892
49.0, 31.691912224516273, -306.9261095635593, 135.69292014231905, -145.62235452467576, -0.04800000227987766, 1.0240000486373901, -0.17600000835955143, 0.0, 0.0, 0.0, 0.0, 0.0, 1.7151015488930116E9, 0.0, 2024-05-07 12:05:48.893
50.0, 182.054589943029, -163.32517096493393, 258.55985338659957, -22.953635978046805, -0.04800000227987766, 1.0240000486373901, -0.1600000075995922, 0.0, 0.0, 0.0, 0.0, 0.0, 1.715101548893409E9, 0.0, 2024-05-07 12:05:48.893
50.0, 121.12787976488471, -224.92880303505808, 231.34086150908843, -62.58161590853706, -0.04800000227987766, 1.0240000486373901, -0.1600000075995922, 0.0, 0.0, 0.0, 0.0, 0.0, 1.7151015488934224E9, 0.0, 2024-05-07 12:05:48.893
51.0, 14.795044224709272, -326.9607536261901, 86.75258932216093, -160.40617904951796, -0.04800000227987766, 1.0240000486373901, -0.1600000075995922, 0.0, 0.0, 0.0, 0.0, 0.0, 1.7151015488944008E9, 0.0, 2024-05-07 12:05:48.894
51.0, 133.2862945208326, -212.60583268105984, 234.650672969874, -49.521885263267905, -0.04800000227987766, 1.0240000486373901, -0.1600000075995922, 0.0, 0.0, 0.0, 0.0, 0.0, 1.7151015488944292E9, 0.0, 2024-05-07 12:05:48.894
52.0, 168.93876079842448, -181.9049939448014, 221.80785652203485, -16.412550955545157, -0.04800000227987766, 1.0240000486373901, -0.1600000075995922, 0.0, 0.0, 0.0, 0.0, 0.0, 1.7151015489230907E9, 0.0, 2024-05-07 12:05:48.923
52.0, 28.251204265281558, -313.64670978393406, 123.75515948375687, -148.53947649011388, -0.04800000227987766, 1.0240000486373901, -0.1600000075995922, 0.0, 0.0, 0.0, 0.0, 0.0, 1.7151015489231095E9, 0.0, 2024-05-07 12:05:48.923
53.0, 73.57131192833185, -284.509149229154, 138.66988050704822, -109.56223915191367, -0.04800000227987766, 1.0240000486373901, -0.1600000075995922, 0.0, 0.0, 0.0, 0.0, 0.0, 1.7151015489233508E9, 0.0, 2024-05-07 12:05:48.923
53.0, 195.7276641810313, -152.64401669148356, 303.99215804832056, 24.913343554828316, -0.04800000227987766, 1.0240000486373901, -0.1600000075995922, 0.0, 0.0, 0.0, 0.0, 0.0, 1.7151015489233623E9, 0.0, 2024-05-07 12:05:48.923
54.0, 47.88193913269788, -295.42591719981283, 121.99740650458261, -108.56742576370016, -0.04800000227987766, 1.0240000486373901, -0.1600000075995922, 0.0, 0.0, 0.0, 0.0, 0.0, 1.7151015489241736E9, 0.0, 2024-05-07 12:05:48.924
54.0, 15.374728717841208, -335.2708113277331, 131.5266715916805, -131.25365889491513, -0.04800000227987766, 1.0240000486373901, -0.1600000075995922, 0.0, 0.0, 0.0, 0.0, 0.0, 1.7151015489241877E9, 0.0, 2024-05-07 12:05:48.924
55.0, 182.11442834232002, -176.94962650351226, 249.12034589843825, -3.8726664041168988, -0.04800000227987766, 1.0240000486373901, -0.1600000075995922, 0.0, 0.0, 0.0, 0.0, 0.0, 1.7151015489532647E9, 0.0, 2024-05-07 12:05:48.953
55.0, 111.76317027583718, -232.1879488490522, 221.02247753133997, -54.768964901100844, -0.04800000227987766, 1.0240000486373901, -0.1600000075995922, 0.0, 0.0, 0.0, 0.0, 0.0, 1.7151015489532993E9, 0.0, 2024-05-07 12:05:48.953
56.0, -1.690434779971838, -327.8321503158659, 92.31756045622751, -137.68628681870177, -0.04800000227987766, 1.0240000486373901, -0.1600000075995922, 0.0, 0.0, 0.0, 0.0, 0.0, 1.715101548983232E9, 0.0, 2024-05-07 12:05:48.983
56.0, 131.23682934511453, -226.04703312180936, 213.32576342253014, -44.19252782640979, -0.04800000227987766, 1.0240000486373901, -0.1600000075995922, 0.0, 0.0, 0.0, 0.0, 0.0, 1.715101548983261E9, 0.0, 2024-05-07 12:05:48.983
57.0, 150.09340492170304, -193.0199766131118, 213.70349331805483, -9.47877643769607, -0.04800000227987766, 1.0240000486373901, -0.1600000075995922, 0.0, 0.0, 0.0, 0.0, 0.0, 1.7151015489833288E9, 0.0, 2024-05-07 12:05:48.983
57.0, 9.061777592636645, -328.9055016031489, 123.39986898796633, -131.38455539336428, -0.04800000227987766, 1.0240000486373901, -0.1600000075995922, 0.0, 0.0, 0.0, 0.0, 0.0, 1.7151015489833355E9, 0.0, 2024-05-07 12:05:48.983
58.0, 62.71064245700836, -299.39021115284413, 134.1558212605305, -84.99109644303098, -0.04800000227987766, 1.0240000486373901, -0.1600000075995922, 0.0, 0.0, 0.0, 0.0, 0.0, 1.7151015490130374E9, 0.0, 2024-05-07 12:05:49.013
58.0, 179.84804896917194, -171.27619827073067, 284.9747667736374, 34.90635623643175, -0.04800000227987766, 1.0240000486373901, -0.1600000075995922, 0.0, 0.0, 0.0, 0.0, 0.0, 1.7151015490130572E9, 0.0, 2024-05-07 12:05:49.013
59.0, 39.93091182690114, -296.52170788683, 132.69352037785575, -97.82643309095874, -0.04800000227987766, 1.0240000486373901, -0.1600000075995922, 0.0, 0.0, 0.0, 0.0, 0.0, 1.7151015490133646E9, 0.0, 2024-05-07 12:05:49.013
59.0, 16.53409770410508, -318.86761012207717, 110.27282014349476, -89.26954199234024, -0.04800000227987766, 1.0240000486373901, -0.1600000075995922, 0.0, 0.0, 0.0, 0.0, 0.0, 1.7151015490133767E9, 0.0, 2024-05-07 12:05:49.013
60.0, 165.06048454437405, -170.03455148544163, 253.74660214362666, 16.143278158735484, -0.04800000227987766, 1.0240000486373901, -0.17600000835955143, 0.0, 0.0, 0.0, 0.0, 0.0, 1.7151015490140305E9, 0.0, 2024-05-07 12:05:49.014
60.0, 103.3072564760223, -251.03704462572932, 208.25445908261463, -43.31739123677835, -0.04800000227987766, 1.0240000486373901, -0.17600000835955143, 0.0, 0.0, 0.0, 0.0, 0.0, 1.715101549014042E9, 0.0, 2024-05-07 12:05:49.014
61.0, -2.487033470533788, -336.2768444158137, 83.97758355503902, -123.85987668251619, -0.04800000227987766, 1.0240000486373901, -0.17600000835955143, 0.0, 0.0, 0.0, 0.0, 0.0, 1.7151015490147057E9, 0.0, 2024-05-07 12:05:49.014
61.0, 117.4253788087517, -228.5864251917228, 227.0923351594247, -30.75506728561595, -0.04800000227987766, 1.0240000486373901, -0.17600000835955143, 0.0, 0.0, 0.0, 0.0, 0.0, 1.7151015490147176E9, 0.0, 2024-05-07 12:05:49.014
62.0, 147.27352035511285, -191.63247372955084, 225.59263527719304, 2.971350514795631, -0.04800000227987766, 1.0240000486373901, -0.17600000835955143, 0.0, 0.0, 0.0, 0.0, 0.0, 1.7151015490153377E9, 0.0, 2024-05-07 12:05:49.015
62.0, 12.48004615213722, -348.37542077247053, 123.76263928366825, -121.62341650901362, -0.04800000227987766, 1.0240000486373901, -0.17600000835955143, 0.0, 0.0, 0.0, 0.0, 0.0, 1.715101549015346E9, 0.0, 2024-05-07 12:05:49.015
63.0, 44.39635237399489, -307.9620618512854, 131.77350498875603, -75.71240465296432, -0.04800000227987766, 1.0240000486373901, -0.17600000835955143, 0.0, 0.0, 0.0, 0.0, 0.0, 1.7151015490164835E9, 0.0, 2024-05-07 12:05:49.016
63.0, 172.40190815739334, -168.2618389064446, 287.8507498395629, 37.12411691015586, -0.04800000227987766, 1.0240000486373901, -0.17600000835955143, 0.0, 0.0, 0.0, 0.0, 0.0, 1.7151015490164983E9, 0.0, 2024-05-07 12:05:49.016
64.0, 34.384640192613006, -316.9378217449412, 133.23954577138647, -83.59611375955865, -0.04800000227987766, 1.0240000486373901, -0.17600000835955143, 0.0, 0.0, 0.0, 0.0, 0.0, 1.7151015490729556E9, 0.0, 2024-05-07 12:05:49.072
64.0, 8.706487096846104, -335.5662634242326, 125.45681396359578, -99.81605986738577, -0.04800000227987766, 1.0240000486373901, -0.17600000835955143, 0.0, 0.0, 0.0, 0.0, 0.0, 1.7151015490729728E9, 0.0, 2024-05-07 12:05:49.072
65.0, 158.1454095263034, -188.30396276898682, 232.30575569765642, 30.096844893414527, -0.04800000227987766, 1.0240000486373901, -0.17600000835955143, 0.0, 0.0, 0.0, 0.0, 0.0, 1.715101549074103E9, 0.0, 2024-05-07 12:05:49.074
65.0, 91.60510951466858, -255.02003807853907, 211.86720243981108, -8.64477874757722, -0.04800000227987766, 1.0240000486373901, -0.17600000835955143, 0.0, 0.0, 0.0, 0.0, 0.0, 1.7151015490741172E9, 0.0, 2024-05-07 12:05:49.074
66.0, -5.5350519344210625, -347.0589759880677, 89.68093098746613, -109.83151194872335, -0.04800000227987766, 1.0240000486373901, -0.17600000835955143, 0.0, 0.0, 0.0, 0.0, 0.0, 1.7151015490749516E9, 0.0, 2024-05-07 12:05:49.074
66.0, 114.45589824393392, -226.5893186153844, 228.73789113992825, -10.899938420858234, -0.04800000227987766, 1.0240000486373901, -0.17600000835955143, 0.0, 0.0, 0.0, 0.0, 0.0, 1.7151015490749676E9, 0.0, 2024-05-07 12:05:49.074
67.0, 140.73991513252258, -215.8408461427316, 210.62555565452203, 26.446702536661178, -0.04800000227987766, 1.0240000486373901, -0.17600000835955143, 0.0, 0.0, 0.0, 0.0, 0.0, 1.7151015490753753E9, 0.0, 2024-05-07 12:05:49.075
67.0, -10.183747579343617, -339.22014568094164, 129.3388301176019, -109.93622914748266, -0.04800000227987766, 1.0240000486373901, -0.17600000835955143, 0.0, 0.0, 0.0, 0.0, 0.0, 1.7151015490753846E9, 0.0, 2024-05-07 12:05:49.075
68.0, 36.99135046172887, -273.81677525583655, 120.1498959264718, -50.42694105254486, -0.04800000227987766, 1.0240000486373901, -0.17600000835955143, 0.0, 0.0, 0.0, 0.0, 0.0, 1.715101549076005E9, 0.0, 2024-05-07 12:05:49.076
68.0, 153.76972657814622, -156.9598612403497, 302.17456666985527, 48.317637477535754, -0.04800000227987766, 1.0240000486373901, -0.17600000835955143, 0.0, 0.0, 0.0, 0.0, 0.0, 1.715101549076013E9, 0.0, 2024-05-07 12:05:49.076
69.0, 26.785163482651114, -307.1093646613881, 118.83345114206895, -64.54880328522995, -0.04800000227987766, 1.0240000486373901, -0.17600000835955143, 0.0, 0.0, 0.0, 0.0, 0.0, 1.71510154907713E9, 0.0, 2024-05-07 12:05:49.077
69.0, 2.655328968539834, -335.4204073259607, 122.06098480382934, -88.85815299721435, -0.04800000227987766, 1.0240000486373901, -0.17600000835955143, 0.0, 0.0, 0.0, 0.0, 0.0, 1.7151015490771391E9, 0.0, 2024-05-07 12:05:49.077
70.0, 146.7686338610947, -179.33194277528673, 220.6746668354608, 30.74758748570457, -0.04800000227987766, 1.0240000486373901, -0.1600000075995922, 0.0, 0.0, 0.0, 0.0, 0.0, 1.7151015491329181E9, 0.0, 2024-05-07 12:05:49.132
70.0, 68.34667169023305, -264.26133086904883, 220.6410077358596, -11.251489016693085, -0.04800000227987766, 1.0240000486373901, -0.1600000075995922, 0.0, 0.0, 0.0, 0.0, 0.0, 1.7151015491329353E9, 0.0, 2024-05-07 12:05:49.132
71.0, -31.684432424604893, -344.11567472293973, 74.32490176940337, -108.77686016121879, -0.04800000227987766, 1.0240000486373901, -0.1600000075995922, 0.0, 0.0, 0.0, 0.0, 0.0, 1.7151015491333854E9, 0.0, 2024-05-07 12:05:49.133
71.0, 105.03883015550673, -231.34273145906627, 234.60205427045003, -6.565394372213632, -0.04800000227987766, 1.0240000486373901, -0.1600000075995922, 0.0, 0.0, 0.0, 0.0, 0.0, 1.7151015491333969E9, 0.0, 2024-05-07 12:05:49.133
72.0, 128.70491707511246, -211.64467839244753, 209.81399736413732, 25.96425544237718, -0.04800000227987766, 1.0240000486373901, -0.1600000075995922, 0.0, 0.0, 0.0, 0.0, 0.0, 1.7151015491340673E9, 0.0, 2024-05-07 12:05:49.134
72.0, -9.877075782977045, -356.44238497689366, 125.32217756519094, -110.68046923866495, -0.04800000227987766, 1.0240000486373901, -0.1600000075995922, 0.0, 0.0, 0.0, 0.0, 0.0, 1.7151015491340787E9, 0.0, 2024-05-07 12:05:49.134
73.0, 31.86394762247801, -294.23288911394775, 136.94952652743086, -56.01435158634558, -0.04800000227987766, 1.0240000486373901, -0.1600000075995922, 0.0, 0.0, 0.0, 0.0, 0.0, 1.7151015491347065E9, 0.0, 2024-05-07 12:05:49.134
73.0, 160.06023830361664, -178.72607898246497, 300.1325812940486, 43.14535583881661, -0.04800000227987766, 1.0240000486373901, -0.1600000075995922, 0.0, 0.0, 0.0, 0.0, 0.0, 1.715101549134718E9, 0.0, 2024-05-07 12:05:49.134
74.0, 25.251804500818253, -307.75636735372245, 125.86446305876598, -77.36918033333495, -0.04800000227987766, 1.0240000486373901, -0.1600000075995922, 0.0, 0.0, 0.0, 0.0, 0.0, 1.7151015491356568E9, 0.0, 2024-05-07 12:05:49.135
74.0, -8.003385905176401, -324.6457555536181, 125.43063466390595, -99.5467870705761, -0.04800000227987766, 1.0240000486373901, -0.1600000075995922, 0.0, 0.0, 0.0, 0.0, 0.0, 1.715101549135671E9, 0.0, 2024-05-07 12:05:49.135
75.0, 147.9990609465167, -192.3841936206445, 226.73704466363415, 25.16391685185954, -0.04800000227987766, 1.0240000486373901, -0.1600000075995922, 0.0, 0.0, 0.0, 0.0, 0.0, 1.7151015491366339E9, 0.0, 2024-05-07 12:05:49.136
75.0, 63.383824449032545, -251.24647902324796, 183.6571370740421, -24.595452058594674, -0.04800000227987766, 1.0240000486373901, -0.1600000075995922, 0.0, 0.0, 0.0, 0.0, 0.0, 1.715101549136648E9, 0.0, 2024-05-07 12:05:49.136
76.0, -13.467379740439355, -346.96547848917544, 67.83617534628138, -113.05530571052805, -0.04800000227987766, 1.0240000486373901, -0.1600000075995922, 0.0, 0.0, 0.0, 0.0, 0.0, 1.715101549193104E9, 0.0, 2024-05-07 12:05:49.193
76.0, 91.86316261161119, -228.05909929797053, 206.34711010521278, -1.6212466307915747, -0.04800000227987766, 1.0240000486373901, -0.1600000075995922, 0.0, 0.0, 0.0, 0.0, 0.0, 1.715101549193133E9, 0.0, 2024-05-07 12:05:49.193
77.0, 124.2058174284175, -187.39516707975417, 210.03091156156734, 25.60522504663095, -0.04800000227987766, 1.0240000486373901, -0.1600000075995922, 0.0, 0.0, 0.0, 0.0, 0.0, 1.7151015491934128E9, 0.0, 2024-05-07 12:05:49.193
77.0, 0.19447479769587517, -339.0967289824039, 74.61661396594718, -108.90027685975656, -0.04800000227987766, 1.0240000486373901, -0.1600000075995922, 0.0, 0.0, 0.0, 0.0, 0.0, 1.7151015491934257E9, 0.0, 2024-05-07 12:05:49.193
78.0, 45.293928363360465, -275.5782681349665, 110.59445153968409, -56.86704877624288, -0.04800000227987766, 1.0240000486373901, -0.1600000075995922, 0.0, 0.0, 0.0, 0.0, 0.0, 1.7151015491943443E9, 0.0, 2024-05-07 12:05:49.194
78.0, 177.69012669473886, -151.5931048039347, 260.0707729686983, 58.359268858563155, -0.04800000227987766, 1.0240000486373901, -0.1600000075995922, 0.0, 0.0, 0.0, 0.0, 0.0, 1.715101549194368E9, 0.0, 2024-05-07 12:05:49.194
79.0, 31.187025730498135, -291.9066713415086, 113.36571740685031, -59.34660244686529, -0.04800000227987766, 1.0240000486373901, -0.1600000075995922, 0.0, 0.0, 0.0, 0.0, 0.0, 1.7151015491947327E9, 0.0, 2024-05-07 12:05:49.194
79.0, -21.949472839944065, -319.0396455200389, 92.66911105206236, -94.73727572755888, -0.04800000227987766, 1.0240000486373901, -0.1600000075995922, 0.0, 0.0, 0.0, 0.0, 0.0, 1.715101549194743E9, 0.0, 2024-05-07 12:05:49.194
80.0, 156.35399744752795, -156.42879544664174, 249.6514116921462, 27.490134624298662, -0.04800000227987766, 1.0240000486373901, -0.17600000835955143, 0.0, 0.0, 0.0, 0.0, 0.0, 1.7151015491953423E9, 0.0, 2024-05-07 12:05:49.195
80.0, 71.20395525638014, -245.3336971933022, 178.74290853226557, -18.843485926743597, -0.04800000227987766, 1.0240000486373901, -0.17600000835955143, 0.0, 0.0, 0.0, 0.0, 0.0, 1.715101549195351E9, 0.0, 2024-05-07 12:05:49.195
81.0, -29.174959554336965, -336.3740818146616, 82.18617147626355, -111.47332802927122, -0.04800000227987766, 1.0240000486373901, -0.17600000835955143, 0.0, 0.0, 0.0, 0.0, 0.0, 1.7151015491961744E9, 0.0, 2024-05-07 12:05:49.196
81.0, 92.3755289055407, -224.80538633652031, 212.43566723307595, -5.394805686082691, -0.04800000227987766, 1.0240000486373901, -0.17600000835955143, 0.0, 0.0, 0.0, 0.0, 0.0, 1.7151015491961832E9, 0.0, 2024-05-07 12:05:49.196
82.0, 127.504409189336, -193.0573756126687, 225.9030469735153, 34.30423234356567, -0.06400000303983688, 1.0240000486373901, -0.17600000835955143, 0.0, 0.0, 0.0, 0.0, 0.0, 1.715101549222886E9, 0.0, 2024-05-07 12:05:49.222
82.0, -7.405001912266016, -323.826717463322, 102.98001522989944, -101.30827994970605, -0.06400000303983688, 1.0240000486373901, -0.17600000835955143, 0.0, 0.0, 0.0, 0.0, 0.0, 1.715101549222904E9, 0.0, 2024-05-07 12:05:49.222
83.0, 41.44931120891124, -277.7960288086906, 154.2802229220979, -59.556036844383925, -0.06400000303983688, 1.0240000486373901, -0.17600000835955143, 0.0, 0.0, 0.0, 0.0, 0.0, 1.7151015492233717E9, 0.0, 2024-05-07 12:05:49.223
83.0, 164.61169654969126, -152.38596359454095, 285.87982256291434, 55.01953819813207, -0.06400000303983688, 1.0240000486373901, -0.17600000835955143, 0.0, 0.0, 0.0, 0.0, 0.0, 1.7151015492233827E9, 0.0, 2024-05-07 12:05:49.223
84.0, 29.863101146183908, -282.55318155232817, 126.81439764751121, -56.82590987673029, -0.06400000303983688, 1.0240000486373901, -0.17600000835955143, 0.0, 0.0, 0.0, 0.0, 0.0, 1.7151015492242675E9, 0.0, 2024-05-07 12:05:49.224
84.0, -1.0733512872830033, -317.02009954396635, 124.95192746957764, -90.32419377984479, -0.06400000303983688, 1.0240000486373901, -0.17600000835955143, 0.0, 0.0, 0.0, 0.0, 0.0, 1.715101549224276E9, 0.0, 2024-05-07 12:05:49.224
85.0, 148.63858383893967, -156.3016388481483, 221.92005352070555, 27.1423239284195, -0.06400000303983688, 1.0240000486373901, -0.17600000835955143, 0.0, 0.0, 0.0, 0.0, 0.0, 1.715101549253173E9, 0.0, 2024-05-07 12:05:49.253
85.0, 63.821392743848264, -243.54228511452675, 186.0731124454178, -23.58941897051409, -0.06400000303983688, 1.0240000486373901, -0.17600000835955143, 0.0, 0.0, 0.0, 0.0, 0.0, 1.715101549253196E9, 0.0, 2024-05-07 12:05:49.253
86.0, -26.747764483094215, -346.198798998259, 64.39920728700235, -98.75018838001415, -0.06400000303983688, 1.0240000486373901, -0.17600000835955143, 0.0, 0.0, 0.0, 0.0, 0.0, 1.715101549253601E9, 0.0, 2024-05-07 12:05:49.253
86.0, 89.91467473469675, -216.1437780391425, 225.58515547728166, -24.947002654429525, -0.06400000303983688, 1.0240000486373901, -0.17600000835955143, 0.0, 0.0, 0.0, 0.0, 0.0, 1.7151015492536128E9, 0.0, 2024-05-07 12:05:49.253
87.0, 121.29243536293507, -184.62016131263226, 194.72724094288424, 13.925517485011369, -0.06400000303983688, 1.0240000486373901, -0.17600000835955143, 0.0, 0.0, 0.0, 0.0, 0.0, 1.7151015492542405E9, 0.0, 2024-05-07 12:05:49.254
87.0, -16.294744106940925, -327.39084212109447, 120.83803751831874, -115.70689477911219, -0.06400000303983688, 1.0240000486373901, -0.17600000835955143, 0.0, 0.0, 0.0, 0.0, 0.0, 1.7151015492542517E9, 0.0, 2024-05-07 12:05:49.254
88.0, 29.44797225110233, -286.1696648094803, 112.89075011247769, -74.29872246971354, -0.06400000303983688, 1.0240000486373901, -0.17600000835955143, 0.0, 0.0, 0.0, 0.0, 0.0, 1.715101549282919E9, 0.0, 2024-05-07 12:05:49.282
88.0, 150.11584432143718, -173.38924174569547, 284.75785257620737, 51.64988833805546, -0.06400000303983688, 1.0240000486373901, -0.17600000835955143, 0.0, 0.0, 0.0, 0.0, 0.0, 1.7151015492829347E9, 0.0, 2024-05-07 12:05:49.282
89.0, 11.092543268576264, -293.37645202409476, 110.26534034358338, -70.4989841147326, -0.06400000303983688, 1.0240000486373901, -0.17600000835955143, 0.0, 0.0, 0.0, 0.0, 0.0, 1.7151015492833834E9, 0.0, 2024-05-07 12:05:49.283
89.0, -11.477752964012325, -314.42460897471756, 122.6331894970499, -90.39151197904721, -0.06400000303983688, 1.0240000486373901, -0.17600000835955143, 0.0, 0.0, 0.0, 0.0, 0.0, 1.7151015492833946E9, 0.0, 2024-05-07 12:05:49.283
90.0, 144.9622621824965, -180.96253915596753, 237.15266604023054, 27.336798726115376, -0.06400000303983688, 1.0240000486373901, -0.12800000607967377, 0.0, 0.0, 0.0, 0.0, 0.0, 1.7151015492842216E9, 0.0, 2024-05-07 12:05:49.284
90.0, 73.97148122359067, -250.42370103299618, 203.6730816368945, 4.201777600217611, -0.06400000303983688, 1.0240000486373901, -0.12800000607967377, 0.0, 0.0, 0.0, 0.0, 0.0, 1.7151015492842333E9, 0.0, 2024-05-07 12:05:49.284
91.0, -41.47549050860107, -338.8237162856385, 74.5380760668777, -69.99783752067015, -0.06400000303983688, 1.0240000486373901, -0.12800000607967377, 0.0, 0.0, 0.0, 0.0, 0.0, 1.7151015493133097E9, 0.0, 2024-05-07 12:05:49.313
91.0, 83.57928420975804, -222.60258526261896, 219.52277764910832, 24.251381262671202, -0.06400000303983688, 1.0240000486373901, -0.12800000607967377, 0.0, 0.0, 0.0, 0.0, 0.0, 1.7151015493133483E9, 0.0, 2024-05-07 12:05:49.313
92.0, 98.61368203163147, -196.4644244723022, 226.59866836527362, 56.13776828488335, -0.04800000227987766, 1.0240000486373901, -0.12800000607967377, 0.0, 0.0, 0.0, 0.0, 0.0, 1.7151015493135602E9, 0.0, 2024-05-07 12:05:49.313
92.0, -20.97709885146469, -327.58531691879034, 120.28827222483233, -81.89445927971974, -0.04800000227987766, 1.0240000486373901, -0.12800000607967377, 0.0, 0.0, 0.0, 0.0, 0.0, 1.7151015493135767E9, 0.0, 2024-05-07 12:05:49.313
93.0, 14.847402824088931, -286.7269099028781, 139.16728720115498, -29.99960749456659, -0.04800000227987766, 1.0240000486373901, -0.12800000607967377, 0.0, 0.0, 0.0, 0.0, 0.0, 1.7151015493145335E9, 0.0, 2024-05-07 12:05:49.314
93.0, 143.11101170442998, -165.8196842353791, 277.9736740565859, 67.69405914796516, -0.04800000227987766, 1.0240000486373901, -0.12800000607967377, 0.0, 0.0, 0.0, 0.0, 0.0, 1.7151015493145547E9, 0.0, 2024-05-07 12:05:49.314
94.0, 19.69057326670736, -300.9572292342782, 142.4247400625609, -31.54418617626652, -0.04800000227987766, 1.0240000486373901, -0.12800000607967377, 0.0, 0.0, 0.0, 0.0, 0.0, 1.7151015493728826E9, 0.0, 2024-05-07 12:05:49.372
94.0, -20.96961905155331, -331.69546697009355, 126.02527875686064, -71.01135040866211, -0.04800000227987766, 1.0240000486373901, -0.12800000607967377, 0.0, 0.0, 0.0, 0.0, 0.0, 1.7151015493728993E9, 0.0, 2024-05-07 12:05:49.372
95.0, 131.93619063682854, -173.80437064077705, 264.4838549164124, 44.7796921194531, -0.04800000227987766, 1.0240000486373901, -0.12800000607967377, 0.0, 0.0, 0.0, 0.0, 0.0, 1.7151015493734443E9, 0.0, 2024-05-07 12:05:49.373
95.0, 64.59181213472039, -242.86162332259119, 199.08796429121867, 6.086687177885324, -0.04800000227987766, 1.0240000486373901, -0.12800000607967377, 0.0, 0.0, 0.0, 0.0, 0.0, 1.7151015493734562E9, 0.0, 2024-05-07 12:05:49.373
96.0, -36.57622156664729, -332.2975908629596, 113.76588670210913, -115.86771047720686, -0.04800000227987766, 1.0240000486373901, -0.12800000607967377, 0.0, 0.0, 0.0, 0.0, 0.0, 1.7151015493740835E9, 0.0, 2024-05-07 12:05:49.374
96.0, 72.07535194605589, -224.2967599425465, 214.38789500994608, 11.247749116737396, -0.04800000227987766, 1.0240000486373901, -0.12800000607967377, 0.0, 0.0, 0.0, 0.0, 0.0, 1.7151015493740947E9, 0.0, 2024-05-07 12:05:49.374
97.0, 102.4209001865238, -189.59796815365553, 251.82429356640205, 38.07031159894541, -0.04800000227987766, 1.0240000486373901, -0.12800000607967377, 0.0, 0.0, 0.0, 0.0, 0.0, 1.715101549374663E9, 0.0, 2024-05-07 12:05:49.374
97.0, -12.364109253510833, -330.24438578728586, 88.80953429779038, -76.86429383931682, -0.04800000227987766, 1.0240000486373901, -0.12800000607967377, 0.0, 0.0, 0.0, 0.0, 0.0, 1.7151015493746712E9, 0.0, 2024-05-07 12:05:49.374
98.0, 23.894220816902816, -285.1411923216656, 156.49424369586632, -30.73262788588181, -0.04800000227987766, 1.0240000486373901, -0.12800000607967377, 0.0, 0.0, 0.0, 0.0, 0.0, 1.7151015493754284E9, 0.0, 2024-05-07 12:05:49.375
98.0, 153.16760268528014, -165.93936103396118, 262.595205438789, 63.131381202023476, -0.04800000227987766, 1.0240000486373901, -0.12800000607967377, 0.0, 0.0, 0.0, 0.0, 0.0, 1.7151015493754425E9, 0.0, 2024-05-07 12:05:49.375
99.0, 6.2568526258692145, -299.19947625510395, 153.52850303100422, -44.259846025612205, -0.04800000227987766, 1.0240000486373901, -0.12800000607967377, 0.0, 0.0, 0.0, 0.0, 0.0, 1.7151015494030073E9, 0.0, 2024-05-07 12:05:49.403
99.0, -5.4939130349084735, -322.0016462849453, 89.89410528494045, -70.15491331880912, -0.04800000227987766, 1.0240000486373901, -0.12800000607967377, 0.0, 0.0, 0.0, 0.0, 0.0, 1.7151015494030297E9, 0.0, 2024-05-07 12:05:49.403
100.0, 144.30029989033937, -176.54945720825344, 275.87185028148815, 37.71502110315487, -0.04800000227987766, 1.0240000486373901, -0.1600000075995922, 0.0, 0.0, 0.0, 0.0, 0.0, 1.7151015494036696E9, 0.0, 2024-05-07 12:05:49.403
100.0, 60.612558581866324, -254.5675101839006, 184.16202356806025, -9.718130034860224, -0.04800000227987766, 1.0240000486373901, -0.1600000075995922, 0.0, 0.0, 0.0, 0.0, 0.0, 1.7151015494036872E9, 0.0, 2024-05-07 12:05:49.403
0.0, -113.97906099958345, -431.4348588883877, 7.02914196671918, -188.15997662069276, -0.04800000227987766, 1.0240000486373901, -0.1600000075995922, 0.0, 0.0, 0.0, 0.0, 0.0, 1.715101549404218E9, 0.0, 2024-05-07 12:05:49.404
1.0, 15.46261636679992, -291.82813344243914, 118.42954194685444, -70.79817611118779, -0.04800000227987766, 1.0240000486373901, -0.1600000075995922, 0.0, 0.0, 0.0, 0.0, 0.0, 1.7151015494047573E9, 0.0, 2024-05-07 12:05:49.404
1.0, 31.847118072677404, -273.5437625590712, 139.6385145955719, -42.16176215047017, -0.04800000227987766, 1.0240000486373901, -0.1600000075995922, 0.0, 0.0, 0.0, 0.0, 0.0, 1.7151015494047673E9, 0.0, 2024-05-07 12:05:49.404
2.0, -102.1759367394261, -411.98737911880016, 10.443670626264066, -159.31038836250082, -0.06400000303983688, 1.0240000486373901, -0.1600000075995922, 0.0, 0.0, 0.0, 0.0, 0.0, 1.7151015494055436E9, 0.0, 2024-05-07 12:05:49.405
2.0, -62.85462860530242, -363.6641317913309, 46.241993002127856, -127.86904943501577, -0.06400000303983688, 1.0240000486373901, -0.1600000075995922, 0.0, 0.0, 0.0, 0.0, 0.0, 1.7151015494055524E9, 0.0, 2024-05-07 12:05:49.405
3.0, 55.71889948984608, -228.04413969814777, 186.60043833917007, -23.682916469406337, -0.06400000303983688, 1.0240000486373901, -0.1600000075995922, 0.0, 0.0, 0.0, 0.0, 0.0, 1.7151015494329383E9, 0.0, 2024-05-07 12:05:49.432
3.0, -65.61467477260157, -381.52589397970587, 36.10686412220821, -141.1606538775377, -0.06400000303983688, 1.0240000486373901, -0.1600000075995922, 0.0, 0.0, 0.0, 0.0, 0.0, 1.715101549432954E9, 0.0, 2024-05-07 12:05:49.432
4.0, -88.86189289717004, -386.24190782383084, 12.796067698393017, -165.70187738677487, -0.06400000303983688, 1.0240000486373901, -0.1600000075995922, 0.0, 0.0, 0.0, 0.0, 0.0, 1.7151015494336588E9, 0.0, 2024-05-07 12:05:49.433
4.0, 56.8595689763315, -235.0414925152436, 152.41401284420863, -35.75531352637336, -0.06400000303983688, 1.0240000486373901, -0.1600000075995922, 0.0, 0.0, 0.0, 0.0, 0.0, 1.7151015494336717E9, 0.0, 2024-05-07 12:05:49.433
5.0, -20.78449400374666, -325.4124350445345, 112.5541591164656, -86.763809022028, -0.06400000303983688, 1.0240000486373901, -0.1600000075995922, 0.0, 0.0, 0.0, 0.0, 0.0, 1.71510154946319E9, 0.0, 2024-05-07 12:05:49.463
5.0, -101.11380515201017, -415.5702032763511, -13.08777989493683, -190.13464379729703, -0.06400000303983688, 1.0240000486373901, -0.1600000075995922, 0.0, 0.0, 0.0, 0.0, 0.0, 1.7151015494632196E9, 0.0, 2024-05-07 12:05:49.463
6.0, 18.084286235738546, -291.3980449475348, 129.39492861693725, -74.02944967290387, -0.06400000303983688, 1.0240000486373901, -0.1600000075995922, 0.0, 0.0, 0.0, 0.0, 0.0, 1.7151015494635336E9, 0.0, 2024-05-07 12:05:49.463
6.0, 39.70838777953759, -266.69974564015865, 116.54463236918673, -40.70694106770679, -0.06400000303983688, 1.0240000486373901, -0.1600000075995922, 0.0, 0.0, 0.0, 0.0, 0.0, 1.7151015494635603E9, 0.0, 2024-05-07 12:05:49.463
7.0, -81.07916108937934, -402.84706362709403, 51.84810303570703, -178.88876463053748, -0.06400000303983688, 1.0240000486373901, -0.1600000075995922, 0.0, 0.0, 0.0, 0.0, 0.0, 1.7151015494640667E9, 0.0, 2024-05-07 12:05:49.464
7.0, -50.36710265325382, -364.385932482779, 45.94280100567266, -115.79291247809306, -0.06400000303983688, 1.0240000486373901, -0.1600000075995922, 0.0, 0.0, 0.0, 0.0, 0.0, 1.715101549464078E9, 0.0, 2024-05-07 12:05:49.464
8.0, 81.75608298135921, -238.9272485692054, 196.9300420167856, -22.901277378667146, -0.06400000303983688, 1.0240000486373901, -0.1600000075995922, 0.0, 0.0, 0.0, 0.0, 0.0, 1.7151015494649105E9, 0.0, 2024-05-07 12:05:49.464
8.0, -66.99843775620684, -371.19629030209035, 20.653597505297512, -132.3457096819766, -0.06400000303983688, 1.0240000486373901, -0.1600000075995922, 0.0, 0.0, 0.0, 0.0, 0.0, 1.7151015494649196E9, 0.0, 2024-05-07 12:05:49.464
9.0, -95.63111181696877, -390.20246187690645, 37.400869506876916, -142.2377450647764, -0.06400000303983688, 1.0240000486373901, -0.1600000075995922, 0.0, 0.0, 0.0, 0.0, 0.0, 1.7151015495228891E9, 0.0, 2024-05-07 12:05:49.522
9.0, 61.197852924931794, -242.09120393171906, 145.7906500226818, -38.264786396641284, -0.06400000303983688, 1.0240000486373901, -0.1600000075995922, 0.0, 0.0, 0.0, 0.0, 0.0, 1.7151015495229063E9, 0.0, 2024-05-07 12:05:49.522
10.0, -14.112512482795864, -327.9256478147581, 105.99811449414119, -99.5093880710192, -0.06400000303983688, 1.0240000486373901, -0.1600000075995922, 0.0, 0.0, 0.0, 0.0, 0.0, 1.7151015495234003E9, 0.0, 2024-05-07 12:05:49.523
10.0, -109.5136204524897, -409.5190451480448, -31.873297372367233, -179.59934562211856, -0.06400000303983688, 1.0240000486373901, -0.1600000075995922, 0.0, 0.0, 0.0, 0.0, 0.0, 1.715101549523412E9, 0.0, 2024-05-07 12:05:49.523
11.0, 9.389018838759512, -300.37754474114627, 125.26607906585559, -83.59237385960296, -0.06400000303983688, 1.0240000486373901, -0.1600000075995922, 0.0, 0.0, 0.0, 0.0, 0.0, 1.7151015495240624E9, 0.0, 2024-05-07 12:05:49.524
11.0, 36.204101521056145, -266.2359980456531, 126.72464004857466, -43.72878023190424, -0.06400000303983688, 1.0240000486373901, -0.1600000075995922, 0.0, 0.0, 0.0, 0.0, 0.0, 1.715101549524074E9, 0.0, 2024-05-07 12:05:49.524
12.0, -78.21813762327656, -404.0737508125603, 21.038807200733572, -179.37121172482148, -0.06400000303983688, 1.0240000486373901, -0.1600000075995922, 0.0, 0.0, 0.0, 0.0, 0.0, 1.7151015495247047E9, 0.0, 2024-05-07 12:05:49.524
12.0, -50.23246625484899, -349.4562518596649, 35.66929582739249, -127.24448614241555, -0.06400000303983688, 1.0240000486373901, -0.1600000075995922, 0.0, 0.0, 0.0, 0.0, 0.0, 1.7151015495247178E9, 0.0, 2024-05-07 12:05:49.524
13.0, 75.17385905934498, -240.47556715086102, 192.86103086499497, -15.50001536635682, -0.06400000303983688, 1.0240000486373901, -0.1600000075995922, 0.0, 0.0, 0.0, 0.0, 0.0, 1.715101549525346E9, 0.0, 2024-05-07 12:05:49.525
13.0, -59.46627924544737, -374.5509805623442, 19.49422851903364, -147.14075390668586, -0.06400000303983688, 1.0240000486373901, -0.1600000075995922, 0.0, 0.0, 0.0, 0.0, 0.0, 1.7151015495253549E9, 0.0, 2024-05-07 12:05:49.525
14.0, -80.03946890169755, -407.1516884760931, 41.78777215490118, -153.10589433601126, -0.06400000303983688, 1.0240000486373901, -0.1600000075995922, 0.0, 0.0, 0.0, 0.0, 0.0, 1.7151015495262632E9, 0.0, 2024-05-07 12:05:49.526
14.0, 69.63132732501253, -242.94390112161636, 140.55479008471593, -38.36576369544491, -0.06400000303983688, 1.0240000486373901, -0.1600000075995922, 0.0, 0.0, 0.0, 0.0, 0.0, 1.7151015495262718E9, 0.0, 2024-05-07 12:05:49.526
15.0, -10.959776820149273, -326.4184681326151, 116.99342036386952, -85.14443234121427, -0.06400000303983688, 1.0240000486373901, -0.1600000075995922, 0.0, 0.0, 0.0, 0.0, 0.0, 1.7151015495533493E9, 0.0, 2024-05-07 12:05:49.553
15.0, -108.72450156183913, -397.3007919928059, -29.382524001877755, -176.00904166465625, -0.06400000303983688, 1.0240000486373901, -0.1600000075995922, 0.0, 0.0, 0.0, 0.0, 0.0, 1.715101549553384E9, 0.0, 2024-05-07 12:05:49.553
16.0, 25.19383605150506, -280.3578602783382, 126.79943804768845, -87.04430151870474, -0.06400000303983688, 1.0240000486373901, -0.1600000075995922, 0.0, 0.0, 0.0, 0.0, 0.0, 1.7151015495830035E9, 0.0, 2024-05-07 12:05:49.583
16.0, 39.37927658343688, -277.8072485085577, 103.08847232861444, -35.781492826063186, -0.06400000303983688, 1.0240000486373901, -0.1600000075995922, 0.0, 0.0, 0.0, 0.0, 0.0, 1.7151015495830207E9, 0.0, 2024-05-07 12:05:49.583
17.0, -97.5833395938389, -388.9196761921048, 27.254520927090198, -175.61261226935312, -0.06400000303983688, 1.0240000486373901, -0.1600000075995922, 0.0, 0.0, 0.0, 0.0, 0.0, 1.7151015495833845E9, 0.0, 2024-05-07 12:05:49.583
17.0, -47.29664478963241, -339.8634084733203, 33.08128505805507, -134.21191975986585, -0.06400000303983688, 1.0240000486373901, -0.1600000075995922, 0.0, 0.0, 0.0, 0.0, 0.0, 1.7151015495833964E9, 0.0, 2024-05-07 12:05:49.583
18.0, 72.54470939049497, -235.39678301103413, 194.79455914208665, -25.062939553055912, -0.06400000303983688, 1.0240000486373901, -0.1600000075995922, 0.0, 0.0, 0.0, 0.0, 0.0, 1.715101549584088E9, 0.0, 2024-05-07 12:05:49.584
18.0, -55.06067709764466, -369.48715602234006, 23.301446673925966, -150.06161577207968, -0.06400000303983688, 1.0240000486373901, -0.1600000075995922, 0.0, 0.0, 0.0, 0.0, 0.0, 1.7151015495841024E9, 0.0, 2024-05-07 12:05:49.584
19.0, -93.70132343983278, -393.7815461345017, 14.632358576636761, -162.6164599233307, -0.06400000303983688, 1.0240000486373901, -0.1600000075995922, 0.0, 0.0, 0.0, 0.0, 0.0, 1.7151015495847216E9, 0.0, 2024-05-07 12:05:49.584
19.0, 75.0915812603198, -246.70250057708472, 140.47999208560213, -40.16465557413176, -0.06400000303983688, 1.0240000486373901, -0.1600000075995922, 0.0, 0.0, 0.0, 0.0, 0.0, 1.715101549584734E9, 0.0, 2024-05-07 12:05:49.584
20.0, 0.9218853390775621, -321.1227697953582, 96.34169280854985, -105.16037690406665, -0.06400000303983688, 1.0240000486373901, -0.1600000075995922, 0.0, 0.0, 0.0, 0.0, 0.0, 1.7151015495857968E9, 0.0, 2024-05-07 12:05:49.585
20.0, -111.91089632408693, -397.4541278909892, -29.94724889518693, -162.91939181974158, -0.06400000303983688, 1.0240000486373901, -0.1600000075995922, 0.0, 0.0, 0.0, 0.0, 0.0, 1.7151015495858307E9, 0.0, 2024-05-07 12:05:49.585
21.0, 15.672050764318556, -306.27910687122494, 116.7017081673257, -76.96153123816475, -0.06400000303983688, 1.0240000486373901, -0.1600000075995922, 0.0, 0.0, 0.0, 0.0, 0.0, 1.7151015497033973E9, 0.0, 2024-05-07 12:05:49.703
21.0, 49.7088802610524, -283.00196954701096, 121.40650231158361, -60.89118112856522, -0.06400000303983688, 1.0240000486373901, -0.1600000075995922, 0.0, 0.0, 0.0, 0.0, 0.0, 1.715101549703425E9, 0.0, 2024-05-07 12:05:49.703
22.0, -100.00305486517027, -421.7260786034167, -4.2466563996858895, -162.51174272457138, -0.06400000303983688, 1.0240000486373901, -0.1600000075995922, 0.0, 0.0, 0.0, 0.0, 0.0, 1.7151015497034893E9, 0.0, 2024-05-07 12:05:49.703
22.0, -39.28577908454463, -375.7814076477662, 45.17238161480054, -143.13906095409766, -0.06400000303983688, 1.0240000486373901, -0.1600000075995922, 0.0, 0.0, 0.0, 0.0, 0.0, 1.7151015497034988E9, 0.0, 2024-05-07 12:05:49.703
23.0, 70.43166591553017, -236.9600611925125, 168.04679465899244, -22.946156178135425, -0.06400000303983688, 1.0240000486373901, -0.1600000075995922, 0.0, 0.0, 0.0, 0.0, 0.0, 1.715101549704255E9, 0.0, 2024-05-07 12:05:49.704
23.0, -57.536490868311375, -367.3329736478627, 33.10372445778921, -136.2314657359384, -0.06400000303983688, 1.0240000486373901, -0.1600000075995922, 0.0, 0.0, 0.0, 0.0, 0.0, 1.7151015497042732E9, 0.0, 2024-05-07 12:05:49.704
24.0, -94.10897253500298, -415.932973572053, -6.464417073410004, -181.30474000191316, -0.06400000303983688, 1.0240000486373901, -0.1600000075995922, 0.0, 0.0, 0.0, 0.0, 0.0, 1.715101549704944E9, 0.0, 2024-05-07 12:05:49.704
24.0, 67.81373594654724, -246.11159638408571, 165.83277388522401, -21.259461298119277, -0.06400000303983688, 1.0240000486373901, -0.1600000075995922, 0.0, 0.0, 0.0, 0.0, 0.0, 1.715101549704971E9, 0.0, 2024-05-07 12:05:49.704
25.0, 10.600746424403042, -307.41603645775467, 78.2779760225676, -98.86986517859623, -0.06400000303983688, 1.0240000486373901, -0.1600000075995922, 0.0, 0.0, 0.0, 0.0, 0.0, 1.7151015497053604E9, 0.0, 2024-05-07 12:05:49.705
25.0, -82.53024227218702, -409.7135199457407, -3.939984603319317, -191.95597507571802, -0.06400000303983688, 1.0240000486373901, -0.1600000075995922, 0.0, 0.0, 0.0, 0.0, 0.0, 1.7151015497053697E9, 0.0, 2024-05-07 12:05:49.705
26.0, 37.67762210359797, -284.59516692813486, 108.85913796024397, -83.42033846164122, -0.06400000303983688, 1.0240000486373901, -0.1600000075995922, 0.0, 0.0, 0.0, 0.0, 0.0, 1.7151015497060328E9, 0.0, 2024-05-07 12:05:49.706
26.0, 53.06357052130625, -269.44109230767936, 152.63092704163864, -58.18723346060142, -0.06400000303983688, 1.0240000486373901, -0.1600000075995922, 0.0, 0.0, 0.0, 0.0, 0.0, 1.715101549706042E9, 0.0, 2024-05-07 12:05:49.706
27.0, -81.21753738773987, -405.9773598900065, -5.518222384620458, -157.96402437845245, -0.06400000303983688, 1.0240000486373901, -0.1600000075995922, 0.0, 0.0, 0.0, 0.0, 0.0, 1.7151015497069771E9, 0.0, 2024-05-07 12:05:49.706
27.0, -32.647456663195044, -351.9470252301544, 54.12570210872218, -121.73561350768432, -0.06400000303983688, 1.0240000486373901, -0.1600000075995922, 0.0, 0.0, 0.0, 0.0, 0.0, 1.7151015497069857E9, 0.0, 2024-05-07 12:05:49.706
33.0, 91.16941116983071, -218.38397811260074, 132.13253538450226, -19.382031520362943, -0.06400000303983688, 1.0240000486373901, -0.1600000075995922, 0.0, 0.0, 0.0, 0.0, 0.0, 1.715101549733009E9, 0.0, 2024-05-07 12:05:49.733
33.0, -34.45756824174896, -357.93086515925825, 26.514020735863596, -133.27320487098768, -0.06400000303983688, 1.0240000486373901, -0.1600000075995922, 0.0, 0.0, 0.0, 0.0, 0.0, 1.715101549733034E9, 0.0, 2024-05-07 12:05:49.733
34.0, -77.537475831341, -381.8475253758952, -6.771088869776577, -159.97609055461362, -0.06400000303983688, 1.0240000486373901, -0.1600000075995922, 0.0, 0.0, 0.0, 0.0, 0.0, 1.7151015497338412E9, 0.0, 2024-05-07 12:05:49.733
34.0, 67.17047315416858, -232.5207999451086, 150.28974966937676, -50.273605154361576, -0.06400000303983688, 1.0240000486373901, -0.1600000075995922, 0.0, 0.0, 0.0, 0.0, 0.0, 1.7151015497338672E9, 0.0, 2024-05-07 12:05:49.733
35.0, 4.572027695830911, -310.2172215245664, 28.851458208169788, -99.72256236849353, -0.06400000303983688, 1.0240000486373901, -0.1600000075995922, 0.0, 0.0, 0.0, 0.0, 0.0, 1.7151015497629237E9, 0.0, 2024-05-07 12:05:49.762
35.0, -92.22032305737957, -382.8498185640201, -6.004409378860146, -182.1088184923865, -0.06400000303983688, 1.0240000486373901, -0.1600000075995922, 0.0, 0.0, 0.0, 0.0, 0.0, 1.7151015497629406E9, 0.0, 2024-05-07 12:05:49.762
36.0, 15.399038067553192, -285.1374524217099, 54.49595220433548, -83.23708336381242, -0.06400000303983688, 1.0240000486373901, -0.1600000075995922, 0.0, 0.0, 0.0, 0.0, 0.0, 1.715101549763399E9, 0.0, 2024-05-07 12:05:49.763
36.0, 42.45721424696967, -250.83882992807776, 122.57335109775886, -53.516098415944725, -0.06400000303983688, 1.0240000486373901, -0.1600000075995922, 0.0, 0.0, 0.0, 0.0, 0.0, 1.7151015497634108E9, 0.0, 2024-05-07 12:05:49.763
37.0, -76.92039233865216, -390.23612097650766, -69.48921112669632, -194.45422824611887, -0.06400000303983688, 1.0240000486373901, -0.1600000075995922, 0.0, 0.0, 0.0, 0.0, 0.0, 1.715101549764096E9, 0.0, 2024-05-07 12:05:49.764
37.0, -37.74868020275608, -340.25235806871206, 26.588818734977394, -146.31797591643408, -0.06400000303983688, 1.0240000486373901, -0.1600000075995922, 0.0, 0.0, 0.0, 0.0, 0.0, 1.7151015497641072E9, 0.0, 2024-05-07 12:05:49.764
38.0, 90.41021147882566, -212.9162443773821, 100.84827225515619, -14.950250072870404, -0.06400000303983688, 1.0240000486373901, -0.1600000075995922, 0.0, 0.0, 0.0, 0.0, 0.0, 1.7151015497649095E9, 0.0, 2024-05-07 12:05:49.764
38.0, -42.292658648919314, -355.4924503881484, 18.439576731529087, -147.56336260167882, -0.06400000303983688, 1.0240000486373901, -0.1600000075995922, 0.0, 0.0, 0.0, 0.0, 0.0, 1.715101549764918E9, 0.0, 2024-05-07 12:05:49.764
39.0, -83.00520956655964, -380.7068558894098, -59.152127649169415, -152.1260405476205, -0.06400000303983688, 1.0240000486373901, -0.1600000075995922, 0.0, 0.0, 0.0, 0.0, 0.0, 1.7151015497931297E9, 0.0, 2024-05-07 12:05:49.793
39.0, 71.51249700272456, -226.9184298114851, 156.56156189506873, -41.477360458578914, -0.06400000303983688, 1.0240000486373901, -0.1600000075995922, 0.0, 0.0, 0.0, 0.0, 0.0, 1.7151015497931533E9, 0.0, 2024-05-07 12:05:49.793
40.0, 2.2420700234360993, -309.4468021336943, 48.46723347576335, -96.03128111222759, -0.06400000303983688, 1.0240000486373901, -0.17600000835955143, 0.0, 0.0, 0.0, 0.0, 0.0, 1.71510154979388E9, 0.0, 2024-05-07 12:05:49.793
40.0, -79.7253173054196, -407.5368981715292, -12.036868007387966, -167.95703706005588, -0.06400000303983688, 1.0240000486373901, -0.17600000835955143, 0.0, 0.0, 0.0, 0.0, 0.0, 1.7151015497938955E9, 0.0, 2024-05-07 12:05:49.793
41.0, 31.334751778747886, -269.6430469052866, 54.01350511005148, -90.10727958241478, -0.06400000303983688, 1.0240000486373901, -0.17600000835955143, 0.0, 0.0, 0.0, 0.0, 0.0, 1.7151015498532023E9, 0.0, 2024-05-07 12:05:49.853
41.0, 47.857629782985896, -260.2371985167265, 119.72354733152315, -42.85738354222849, -0.06400000303983688, 1.0240000486373901, -0.17600000835955143, 0.0, 0.0, 0.0, 0.0, 0.0, 1.7151015498532195E9, 0.0, 2024-05-07 12:05:49.853
42.0, -81.38583288574591, -395.9619078086689, -49.951973758172244, -176.79068075539544, -0.0800000037997961, 1.0240000486373901, -0.17600000835955143, 0.0, 0.0, 0.0, 0.0, 0.0, 1.7151015498534021E9, 0.0, 2024-05-07 12:05:49.853
42.0, -42.16550205042586, -332.42848736140877, 38.91926888888702, -123.14181589102373, -0.0800000037997961, 1.0240000486373901, -0.17600000835955143, 0.0, 0.0, 0.0, 0.0, 0.0, 1.7151015498534124E9, 0.0, 2024-05-07 12:05:49.853
43.0, 98.40237768413499, -220.7700342843309, 95.48899561865255, -20.978968801442534, -0.0800000037997961, 1.0240000486373901, -0.17600000835955143, 0.0, 0.0, 0.0, 0.0, 0.0, 1.7151015498542595E9, 0.0, 2024-05-07 12:05:49.854
43.0, -47.902508582454175, -359.2099109441042, 22.033620588947088, -135.28527104714885, -0.0800000037997961, 1.0240000486373901, -0.17600000835955143, 0.0, 0.0, 0.0, 0.0, 0.0, 1.7151015498542738E9, 0.0, 2024-05-07 12:05:49.854
44.0, -91.4686031662859, -391.0327196670696, -58.53878405643627, -155.75000360468403, -0.0800000037997961, 1.0240000486373901, -0.17600000835955143, 0.0, 0.0, 0.0, 0.0, 0.0, 1.7151015498546796E9, 0.0, 2024-05-07 12:05:49.854
44.0, 78.62204681849107, -233.87090382911265, 146.5274103139527, -49.77619846025482, -0.0800000037997961, 1.0240000486373901, -0.17600000835955143, 0.0, 0.0, 0.0, 0.0, 0.0, 1.7151015498546877E9, 0.0, 2024-05-07 12:05:49.854
45.0, 3.6071335072629154, -306.53715996816754, 34.90261633647606, -88.8394534974359, -0.0800000037997961, 1.0240000486373901, -0.17600000835955143, 0.0, 0.0, 0.0, 0.0, 0.0, 1.7151015498553386E9, 0.0, 2024-05-07 12:05:49.855
45.0, -120.1124969269149, -409.5676638474688, -34.158376245293766, -159.88259305572137, -0.0800000037997961, 1.0240000486373901, -0.17600000835955143, 0.0, 0.0, 0.0, 0.0, 0.0, 1.715101549855347E9, 0.0, 2024-05-07 12:05:49.855
46.0, 22.474928783718497, -289.00450897589326, 50.99914574576542, -80.33118109824136, -0.0800000037997961, 1.0240000486373901, -0.17600000835955143, 0.0, 0.0, 0.0, 0.0, 0.0, 1.715101549856063E9, 0.0, 2024-05-07 12:05:49.856
46.0, 49.97067325795069, -257.7987837456167, 126.97895324556157, -46.9675335935317, -0.0800000037997961, 1.0240000486373901, -0.17600000835955143, 0.0, 0.0, 0.0, 0.0, 0.0, 1.7151015498560712E9, 0.0, 2024-05-07 12:05:49.856
47.0, -91.67429766384885, -383.2275484595448, -55.580523191485554, -172.38133870763704, -0.0800000037997961, 1.0240000486373901, -0.17600000835955143, 0.0, 0.0, 0.0, 0.0, 0.0, 1.7151015498571332E9, 0.0, 2024-05-07 12:05:49.857
47.0, -42.19542125007138, -349.9050398543477, 18.043147336225957, -143.00442455569282, -0.0800000037997961, 1.0240000486373901, -0.17600000835955143, 0.0, 0.0, 0.0, 0.0, 0.0, 1.7151015498571415E9, 0.0, 2024-05-07 12:05:49.857
48.0, 77.81796832801774, -213.5108884703368, 112.91692941216752, -9.598453236278147, -0.0800000037997961, 1.0240000486373901, -0.17600000835955143, 0.0, 0.0, 0.0, 0.0, 0.0, 1.7151015498831131E9, 0.0, 2024-05-07 12:05:49.883
48.0, -53.5983762149699, -341.097575458698, 15.324240068439394, -148.51329719042405, -0.0800000037997961, 1.0240000486373901, -0.17600000835955143, 0.0, 0.0, 0.0, 0.0, 0.0, 1.715101549883139E9, 0.0, 2024-05-07 12:05:49.883
49.0, -74.10798757197335, -375.42237725201994, -29.93228929536417, -157.1337665882893, -0.0800000037997961, 1.0240000486373901, -0.17600000835955143, 0.0, 0.0, 0.0, 0.0, 0.0, 1.7151015498836422E9, 0.0, 2024-05-07 12:05:49.883
49.0, 75.67500565340742, -215.07790655177087, 137.47685242118314, -30.44465558929369, -0.0800000037997961, 1.0240000486373901, -0.17600000835955143, 0.0, 0.0, 0.0, 0.0, 0.0, 1.715101549883654E9, 0.0, 2024-05-07 12:05:49.883
50.0, -0.20008464762941003, -302.04928002133965, 66.05972286732867, -101.30080014979467, -0.0800000037997961, 1.0240000486373901, -0.17600000835955143, 0.0, 0.0, 0.0, 0.0, 0.0, 1.7151015499129784E9, 0.0, 2024-05-07 12:05:49.912
50.0, -90.11101948237047, -402.01680583693087, -44.286025325302035, -171.85775271384045, -0.0800000037997961, 1.0240000486373901, -0.17600000835955143, 0.0, 0.0, 0.0, 0.0, 0.0, 1.7151015499129937E9, 0.0, 2024-05-07 12:05:49.912
51.0, 17.138091546949, -265.2785836569965, 65.22946507716551, -74.36978056887165, -0.0800000037997961, 1.0240000486373901, -0.17600000835955143, 0.0, 0.0, 0.0, 0.0, 0.0, 1.715101549913384E9, 0.0, 2024-05-07 12:05:49.913
51.0, 52.005178833846, -249.1184759484604, 88.54774130089208, -45.38181601231918, -0.0800000037997961, 1.0240000486373901, -0.17600000835955143, 0.0, 0.0, 0.0, 0.0, 0.0, 1.7151015499133952E9, 0.0, 2024-05-07 12:05:49.913
52.0, -79.9085724032484, -380.6245780903846, -26.629957634489983, -161.19903784012422, -0.06400000303983688, 1.0240000486373901, -0.17600000835955143, 0.0, 0.0, 0.0, 0.0, 0.0, 1.7151015499140744E9, 0.0, 2024-05-07 12:05:49.914
52.0, -35.33644473133609, -323.8566366629675, -12.321100404020399, -135.13567504892126, -0.06400000303983688, 1.0240000486373901, -0.17600000835955143, 0.0, 0.0, 0.0, 0.0, 0.0, 1.7151015499140894E9, 0.0, 2024-05-07 12:05:49.914
53.0, 88.01667550718412, -206.71175035089254, 127.80173123581335, -19.11649862350896, -0.06400000303983688, 1.0240000486373901, -0.17600000835955143, 0.0, 0.0, 0.0, 0.0, 0.0, 1.7151015499148345E9, 0.0, 2024-05-07 12:05:49.914
53.0, -60.28531733574346, -346.6550667928532, -4.833820692729205, -137.1215619253926, -0.06400000303983688, 1.0240000486373901, -0.17600000835955143, 0.0, 0.0, 0.0, 0.0, 0.0, 1.7151015499148436E9, 0.0, 2024-05-07 12:05:49.914
54.0, -87.28739501582459, -363.52949539292604, -25.13773755216971, -168.82469384977594, -0.06400000303983688, 1.0240000486373901, -0.17600000835955143, 0.0, 0.0, 0.0, 0.0, 0.0, 1.7151015499431055E9, 0.0, 2024-05-07 12:05:49.943
54.0, 67.42478635115549, -218.78040750790387, 100.41070396034047, -22.837699079420418, -0.06400000303983688, 1.0240000486373901, -0.17600000835955143, 0.0, 0.0, 0.0, 0.0, 0.0, 1.7151015499431233E9, 0.0, 2024-05-07 12:05:49.943
55.0, -3.8502270043827593, -298.1410845676437, 64.1598536898382, -88.73473629867658, -0.06400000303983688, 1.0240000486373901, -0.17600000835955143, 0.0, 0.0, 0.0, 0.0, 0.0, 1.715101549972957E9, 0.0, 2024-05-07 12:05:49.972
55.0, -94.72231612773612, -388.94959539175034, -62.435759810265154, -161.8011617329903, -0.06400000303983688, 1.0240000486373901, -0.17600000835955143, 0.0, 0.0, 0.0, 0.0, 0.0, 1.7151015499729722E9, 0.0, 2024-05-07 12:05:49.972
56.0, 30.960761783178896, -277.74741010926664, 78.48741042008623, -84.81158124515787, -0.06400000303983688, 1.0240000486373901, -0.17600000835955143, 0.0, 0.0, 0.0, 0.0, 0.0, 1.7151015499733903E9, 0.0, 2024-05-07 12:05:49.973
56.0, 34.52488644095138, -248.12740246020257, 66.32151586422697, -67.16673325421289, -0.06400000303983688, 1.0240000486373901, -0.17600000835955143, 0.0, 0.0, 0.0, 0.0, 0.0, 1.715101549973402E9, 0.0, 2024-05-07 12:05:49.973
57.0, -100.78095405595377, -377.6588374255225, -19.9542362135835, -163.93664460768923, -0.06400000303983688, 1.0240000486373901, -0.17600000835955143, 0.0, 0.0, 0.0, 0.0, 0.0, 1.7151015499740725E9, 0.0, 2024-05-07 12:05:49.974
57.0, -36.47711421782151, -336.4227005140856, -0.805948440451175, -132.47660618042573, -0.06400000303983688, 1.0240000486373901, -0.17600000835955143, 0.0, 0.0, 0.0, 0.0, 0.0, 1.715101549974084E9, 0.0, 2024-05-07 12:05:49.974
58.0, 68.63651393679902, -198.5438088476658, 175.55651377001777, -16.487348954658955, -0.06400000303983688, 1.0240000486373901, -0.17600000835955143, 0.0, 0.0, 0.0, 0.0, 0.0, 1.7151015499747171E9, 0.0, 2024-05-07 12:05:49.974
58.0, -54.97465939866379, -352.7922426201403, -18.028187736403197, -145.59243532503024, -0.06400000303983688, 1.0240000486373901, -0.17600000835955143, 0.0, 0.0, 0.0, 0.0, 0.0, 1.715101549974729E9, 0.0, 2024-05-07 12:05:49.974
59.0, -72.85512108681723, -375.2129428545013, -1.4342516330070794, -157.51523638376966, -0.06400000303983688, 1.0240000486373901, -0.17600000835955143, 0.0, 0.0, 0.0, 0.0, 0.0, 1.71510154997563E9, 0.0, 2024-05-07 12:05:49.975
59.0, 77.32430153386667, -208.2151901330799, 99.25507487403229, -14.976429372560233, -0.06400000303983688, 1.0240000486373901, -0.17600000835955143, 0.0, 0.0, 0.0, 0.0, 0.0, 1.715101549975641E9, 0.0, 2024-05-07 12:05:49.975
60.0, 4.362593298312277, -287.56464749295264, 53.67691411403939, -90.35411297949031, -0.06400000303983688, 1.0240000486373901, -0.1600000075995922, 0.0, 0.0, 0.0, 0.0, 0.0, 1.7151015500330243E9, 0.0, 2024-05-07 12:05:50.033
60.0, -103.33530572568998, -387.34891821071506, -82.0216158782132, -155.2787762102671, -0.06400000303983688, 1.0240000486373901, -0.1600000075995922, 0.0, 0.0, 0.0, 0.0, 0.0, 1.7151015500330453E9, 0.0, 2024-05-07 12:05:50.033
61.0, -2.8329742164351046, -278.25603650324047, 82.15999217657372, -77.27194293448702, -0.06400000303983688, 1.008000047877431, -0.1600000075995922, 0.0, 0.0, 0.0, 0.0, 0.0, 1.715101550033496E9, 0.0, 2024-05-07 12:05:50.033
61.0, 48.03340508090332, -231.5185067569837, 65.6782530718483, -40.647102668415755, -0.06400000303983688, 1.008000047877431, -0.1600000075995922, 0.0, 0.0, 0.0, 0.0, 0.0, 1.7151015500335093E9, 0.0, 2024-05-07 12:05:50.033
62.0, -76.80445544002578, -367.7331429431215, -17.13061174703762, -157.76580968080088, -0.04800000227987766, 1.008000047877431, -0.1600000075995922, 0.0, 0.0, 0.0, 0.0, 0.0, 1.7151015500342348E9, 0.0, 2024-05-07 12:05:50.034
62.0, -35.73287412663922, -319.02468592021614, -8.816814145538956, -134.74298555357382, -0.04800000227987766, 1.008000047877431, -0.1600000075995922, 0.0, 0.0, 0.0, 0.0, 0.0, 1.7151015500342524E9, 0.0, 2024-05-07 12:05:50.034
63.0, 95.46281631896272, -217.8080335194245, 149.4632317791693, -7.167518265079707, -0.04800000227987766, 1.008000047877431, -0.1600000075995922, 0.0, 0.0, 0.0, 0.0, 0.0, 1.7151015500347395E9, 0.0, 2024-05-07 12:05:50.034
63.0, -49.925794458482414, -348.7868097675964, -26.132550940383226, -134.37273545796052, -0.04800000227987766, 1.008000047877431, -0.1600000075995922, 0.0, 0.0, 0.0, 0.0, 0.0, 1.7151015500347495E9, 0.0, 2024-05-07 12:05:50.034
64.0, -78.019922925625, -380.23188859503716, -31.59280487569049, -155.50691010756418, -0.04800000227987766, 1.008000047877431, -0.1600000075995922, 0.0, 0.0, 0.0, 0.0, 0.0, 1.7151015500353775E9, 0.0, 2024-05-07 12:05:50.035
64.0, 70.08011531969532, -221.30483997799456, 96.81292020296678, -38.5564985931851, -0.04800000227987766, 1.008000047877431, -0.1600000075995922, 0.0, 0.0, 0.0, 0.0, 0.0, 1.7151015500353882E9, 0.0, 2024-05-07 12:05:50.035
65.0, -1.4305117330513895, -301.8772446233779, 37.430788706522435, -101.48779514757916, -0.04800000227987766, 1.008000047877431, -0.1600000075995922, 0.0, 0.0, 0.0, 0.0, 0.0, 1.7151015500365825E9, 0.0, 2024-05-07 12:05:50.036
65.0, -88.05033460678533, -399.9785603610799, -64.06261629099026, -169.95788353634998, -0.04800000227987766, 1.008000047877431, -0.1600000075995922, 0.0, 0.0, 0.0, 0.0, 0.0, 1.7151015500365944E9, 0.0, 2024-05-07 12:05:50.036
66.0, 23.746494768653065, -272.3469945732504, 73.9060329743661, -76.66981904162094, -0.04800000227987766, 1.008000047877431, -0.1600000075995922, 0.0, 0.0, 0.0, 0.0, 0.0, 1.7151015500633683E9, 0.0, 2024-05-07 12:05:50.063
66.0, 57.32705647079274, -255.0125582786277, 83.7644092575647, -43.72504033194855, -0.04800000227987766, 1.008000047877431, -0.1600000075995922, 0.0, 0.0, 0.0, 0.0, 0.0, 1.7151015500633852E9, 0.0, 2024-05-07 12:05:50.063
67.0, -88.802054497879, -389.0655322903767, -26.944109230767936, -162.19011132838205, -0.04800000227987766, 1.008000047877431, -0.1600000075995922, 0.0, 0.0, 0.0, 0.0, 0.0, 1.715101550063589E9, 0.0, 2024-05-07 12:05:50.063
67.0, -49.37228926504031, -328.32581711001694, 7.04036166658625, -113.87434380082414, -0.04800000227987766, 1.008000047877431, -0.1600000075995922, 0.0, 0.0, 0.0, 0.0, 0.0, 1.7151015500636003E9, 0.0, 2024-05-07 12:05:50.063
68.0, 83.53253546031192, -202.653958898969, 136.63163503119722, -13.09151979489252, -0.04800000227987766, 1.008000047877431, -0.1600000075995922, 0.0, 0.0, 0.0, 0.0, 0.0, 1.7151015500929549E9, 0.0, 2024-05-07 12:05:50.092
68.0, -49.873435859102756, -343.3153361324221, -25.98669484211132, -137.89198131626472, -0.04800000227987766, 1.008000047877431, -0.1600000075995922, 0.0, 0.0, 0.0, 0.0, 0.0, 1.7151015500929713E9, 0.0, 2024-05-07 12:05:50.092
69.0, -81.15021918853745, -370.1042395150289, -24.984401653986424, -163.37939951429144, -0.04800000227987766, 1.008000047877431, -0.1600000075995922, 0.0, 0.0, 0.0, 0.0, 0.0, 1.7151015501231532E9, 0.0, 2024-05-07 12:05:50.123
69.0, 63.939199592452496, -206.30410125572234, 83.40911876177415, -33.94520194781944, -0.04800000227987766, 1.008000047877431, -0.1600000075995922, 0.0, 0.0, 0.0, 0.0, 0.0, 1.715101550123167E9, 0.0, 2024-05-07 12:05:50.123
70.0, -15.559853765647858, -292.9575832290575, 35.2205078327097, -99.69264316884801, -0.04800000227987766, 1.008000047877431, -0.17600000835955143, 0.0, 0.0, 0.0, 0.0, 0.0, 1.7151015501233785E9, 0.0, 2024-05-07 12:05:50.123
70.0, -106.93682938301936, -371.11775240302086, -62.839669005479664, -177.38158494839445, -0.04800000227987766, 1.008000047877431, -0.17600000835955143, 0.0, 0.0, 0.0, 0.0, 0.0, 1.7151015501233892E9, 0.0, 2024-05-07 12:05:50.123
71.0, 15.541154265869409, -255.7530584698543, 74.45579826785251, -89.00026919553056, -0.04800000227987766, 1.0240000486373901, -0.17600000835955143, 0.0, 0.0, 0.0, 0.0, 0.0, 1.715101550124098E9, 0.0, 2024-05-07 12:05:50.124
71.0, 34.962454735767096, -220.93084998242557, 53.979846010450274, -58.11617536144331, -0.04800000227987766, 1.0240000486373901, -0.17600000835955143, 0.0, 0.0, 0.0, 0.0, 0.0, 1.7151015501241095E9, 0.0, 2024-05-07 12:05:50.124
72.0, -99.56548657035455, -364.7711421782151, -34.203255044762045, -180.15285081556067, -0.04800000227987766, 1.0240000486373901, -0.17600000835955143, 0.0, 0.0, 0.0, 0.0, 0.0, 1.715101550124754E9, 0.0, 2024-05-07 12:05:50.124
72.0, -48.05958438059315, -307.16172326076776, -21.51751439506188, -116.68674856750295, -0.04800000227987766, 1.0240000486373901, -0.17600000835955143, 0.0, 0.0, 0.0, 0.0, 0.0, 1.7151015501247652E9, 0.0, 2024-05-07 12:05:50.124
73.0, 77.52999603142962, -193.0872948123142, 126.32821065327153, -16.191896858159453, -0.04800000227987766, 1.0240000486373901, -0.17600000835955143, 0.0, 0.0, 0.0, 0.0, 0.0, 1.715101550125378E9, 0.0, 2024-05-07 12:05:50.125
73.0, -62.405840610619634, -332.1853938642889, -35.50474022934213, -145.28576352866367, -0.04800000227987766, 1.0240000486373901, -0.17600000835955143, 0.0, 0.0, 0.0, 0.0, 0.0, 1.7151015501253862E9, 0.0, 2024-05-07 12:05:50.125
74.0, -102.13479783991352, -355.77294288482517, -12.796067698393017, -146.11228141887113, -0.04800000227987766, 1.0240000486373901, -0.17600000835955143, 0.0, 0.0, 0.0, 0.0, 0.0, 1.7151015501262407E9, 0.0, 2024-05-07 12:05:50.126
74.0, 65.82410917012021, -200.44367802515626, 98.5482337824069, -26.551419735420495, -0.04800000227987766, 1.0240000486373901, -0.17600000835955143, 0.0, 0.0, 0.0, 0.0, 0.0, 1.7151015501262512E9, 0.0, 2024-05-07 12:05:50.126
75.0, -19.12771832337603, -279.1648321924731, 48.54951127478853, -92.5456943535246, -0.04800000227987766, 1.0240000486373901, -0.17600000835955143, 0.0, 0.0, 0.0, 0.0, 0.0, 1.7151015501833696E9, 0.0, 2024-05-07 12:05:50.183
75.0, -89.35181979136541, -357.4558978648856, -66.55338966147974, -174.29242758499458, -0.04800000227987766, 1.0240000486373901, -0.17600000835955143, 0.0, 0.0, 0.0, 0.0, 0.0, 1.7151015501833887E9, 0.0, 2024-05-07 12:05:50.183
76.0, 3.461277408991009, -263.29269678052515, 86.75258932216093, -79.75523650506511, -0.04800000227987766, 1.0240000486373901, -0.17600000835955143, 0.0, 0.0, 0.0, 0.0, 0.0, 1.715101550183498E9, 0.0, 2024-05-07 12:05:50.183
76.0, 47.850149983074516, -228.67992269061506, 85.316467739176, -47.98478638147935, -0.04800000227987766, 1.0240000486373901, -0.17600000835955143, 0.0, 0.0, 0.0, 0.0, 0.0, 1.7151015501835108E9, 0.0, 2024-05-07 12:05:50.183
77.0, -99.55800677044317, -361.4725504172966, -35.459861429873854, -181.813366395887, -0.04800000227987766, 1.0240000486373901, -0.17600000835955143, 0.0, 0.0, 0.0, 0.0, 0.0, 1.7151015501840696E9, 0.0, 2024-05-07 12:05:50.184
77.0, -53.84894951200113, -304.71208878979087, 10.047241230960935, -120.59868392115459, -0.04800000227987766, 1.0240000486373901, -0.17600000835955143, 0.0, 0.0, 0.0, 0.0, 0.0, 1.7151015501840785E9, 0.0, 2024-05-07 12:05:50.184
78.0, 77.78804912837222, -190.61522094160318, 138.11263541365042, -34.42390914214775, -0.04800000227987766, 1.0240000486373901, -0.17600000835955143, 0.0, 0.0, 0.0, 0.0, 0.0, 1.7151015501847453E9, 0.0, 2024-05-07 12:05:50.184
78.0, -62.17396681336686, -332.8623157562688, -28.533566711936146, -145.88414752157405, -0.04800000227987766, 1.0240000486373901, -0.17600000835955143, 0.0, 0.0, 0.0, 0.0, 0.0, 1.7151015501847568E9, 0.0, 2024-05-07 12:05:50.184
79.0, -97.10463239951059, -358.3459940543398, -17.837452838663012, -177.63215824542567, -0.04800000227987766, 1.0240000486373901, -0.17600000835955143, 0.0, 0.0, 0.0, 0.0, 0.0, 1.7151015501853635E9, 0.0, 2024-05-07 12:05:50.185
79.0, 55.135475096758455, -199.22073073964566, 85.52590213669464, -45.048964916262776, -0.04800000227987766, 1.0240000486373901, -0.17600000835955143, 0.0, 0.0, 0.0, 0.0, 0.0, 1.7151015501853745E9, 0.0, 2024-05-07 12:05:50.185
80.0, -8.790634845849127, -277.26496301498264, 42.76762594329193, -99.16531727509573, -0.04800000227987766, 1.0240000486373901, -0.17600000835955143, 0.0, 0.0, 0.0, 0.0, 0.0, 1.7151015501862984E9, 0.0, 2024-05-07 12:05:50.186
80.0, -107.30707947863266, -377.7785142241046, -72.6082876897417, -201.30946486489847, -0.04800000227987766, 1.0240000486373901, -0.17600000835955143, 0.0, 0.0, 0.0, 0.0, 0.0, 1.7151015501863067E9, 0.0, 2024-05-07 12:05:50.186
81.0, 26.671096534002572, -258.10919544193894, 96.12851851107553, -76.33322804560885, -0.04800000227987766, 1.0240000486373901, -0.17600000835955143, 0.0, 0.0, 0.0, 0.0, 0.0, 1.7151015502129595E9, 0.0, 2024-05-07 12:05:50.212
81.0, 47.053551292512566, -234.1813155254349, 74.62035386590287, -47.337783689145, -0.04800000227987766, 1.0240000486373901, -0.17600000835955143, 0.0, 0.0, 0.0, 0.0, 0.0, 1.715101550212984E9, 0.0, 2024-05-07 12:05:50.212
82.0, -93.66766434023157, -368.89251192938536, -35.422462430316955, -177.41524404799566, -0.04800000227987766, 1.0240000486373901, -0.17600000835955143, 0.0, 0.0, 0.0, 0.0, 0.0, 1.7151015502429817E9, 0.0, 2024-05-07 12:05:50.242
82.0, -41.79525195481256, -321.5191991906613, -19.037960724439472, -127.7082337369211, -0.04800000227987766, 1.0240000486373901, -0.17600000835955143, 0.0, 0.0, 0.0, 0.0, 0.0, 1.715101550242994E9, 0.0, 2024-05-07 12:05:50.242
83.0, 86.66283172322437, -206.08344715833664, 137.35717562260106, -27.53501342376694, -0.04800000227987766, 1.0240000486373901, -0.17600000835955143, 0.0, 0.0, 0.0, 0.0, 0.0, 1.7151015502434072E9, 0.0, 2024-05-07 12:05:50.243
83.0, -59.44383984571323, -330.5660171834752, -28.847718308214098, -132.43546728091314, -0.04800000227987766, 1.0240000486373901, -0.17600000835955143, 0.0, 0.0, 0.0, 0.0, 0.0, 1.7151015502434208E9, 0.0, 2024-05-07 12:05:50.243
84.0, -88.0578144066967, -364.4682102818042, 0.4506579446606338, -170.9900959241204, -0.04800000227987766, 1.0240000486373901, -0.17600000835955143, 0.0, 0.0, 0.0, 0.0, 0.0, 1.715101550244124E9, 0.0, 2024-05-07 12:05:50.244
84.0, 63.969118792098016, -217.49014202319086, 95.24216222157702, -32.89429006027058, -0.04800000227987766, 1.0240000486373901, -0.17600000835955143, 0.0, 0.0, 0.0, 0.0, 0.0, 1.7151015502441373E9, 0.0, 2024-05-07 12:05:50.244
85.0, -18.237622133921832, -301.406017228961, 64.69465938350186, -90.49248927785084, -0.04800000227987766, 1.0240000486373901, -0.17600000835955143, 0.0, 0.0, 0.0, 0.0, 0.0, 1.7151015502447093E9, 0.0, 2024-05-07 12:05:50.244
85.0, -104.85744500765577, -390.83076506946236, -63.77838389435783, -183.63095777435228, -0.04800000227987766, 1.0240000486373901, -0.17600000835955143, 0.0, 0.0, 0.0, 0.0, 0.0, 1.7151015502447178E9, 0.0, 2024-05-07 12:05:50.244
86.0, 6.6214928715489805, -258.2812308399007, 85.96347043151036, -74.87466706288978, -0.04800000227987766, 1.0240000486373901, -0.17600000835955143, 0.0, 0.0, 0.0, 0.0, 0.0, 1.7151015502456005E9, 0.0, 2024-05-07 12:05:50.245
86.0, 43.22015383793041, -241.23476684186608, 68.4981376384385, -46.82915729517117, -0.04800000227987766, 1.0240000486373901, -0.17600000835955143, 0.0, 0.0, 0.0, 0.0, 0.0, 1.7151015502456088E9, 0.0, 2024-05-07 12:05:50.245
87.0, -88.32708720350638, -380.45254269242287, -14.71089647570625, -176.29701396124437, -0.04800000227987766, 1.0240000486373901, -0.17600000835955143, 0.0, 0.0, 0.0, 0.0, 0.0, 1.7151015503032827E9, 0.0, 2024-05-07 12:05:50.303
87.0, -36.589311216492206, -326.4222080325708, 14.101292782928795, -118.34726414782926, -0.04800000227987766, 1.0240000486373901, -0.17600000835955143, 0.0, 0.0, 0.0, 0.0, 0.0, 1.71510155030331E9, 0.0, 2024-05-07 12:05:50.303
88.0, 85.78395523363724, -207.77388193830848, 153.47614443162456, -28.34657171415165, -0.04800000227987766, 1.0240000486373901, -0.17600000835955143, 0.0, 0.0, 0.0, 0.0, 0.0, 1.71510155030381E9, 0.0, 2024-05-07 12:05:50.303
88.0, -48.79260477190837, -349.36649426072836, -20.75831470405683, -128.90126182278618, -0.04800000227987766, 1.0240000486373901, -0.17600000835955143, 0.0, 0.0, 0.0, 0.0, 0.0, 1.7151015503038306E9, 0.0, 2024-05-07 12:05:50.303
89.0, -81.69624458206818, -364.67390477936715, 6.756129269953817, -168.20013055717573, -0.04800000227987766, 1.0240000486373901, -0.17600000835955143, 0.0, 0.0, 0.0, 0.0, 0.0, 1.7151015503042238E9, 0.0, 2024-05-07 12:05:50.304
89.0, 74.16782597126439, -214.3261866606772, 102.95009603025392, -39.012766387779266, -0.04800000227987766, 1.0240000486373901, -0.17600000835955143, 0.0, 0.0, 0.0, 0.0, 0.0, 1.7151015503042371E9, 0.0, 2024-05-07 12:05:50.304
90.0, -2.058814925607294, -293.7392223197967, 69.06660243170336, -84.38523265020922, -0.04800000227987766, 1.0240000486373901, -0.17600000835955143, 0.0, 0.0, 0.0, 0.0, 0.0, 1.7151015503048956E9, 0.0, 2024-05-07 12:05:50.304
90.0, -98.50709488289431, -388.2277947003022, -57.33827617065981, -197.05719861527905, -0.04800000227987766, 1.0240000486373901, -0.17600000835955143, 0.0, 0.0, 0.0, 0.0, 0.0, 1.71510155030491E9, 0.0, 2024-05-07 12:05:50.304
91.0, 28.877637507859617, -252.95561330299824, 105.97941499436274, -82.75463626952842, -0.04800000227987766, 1.008000047877431, -0.17600000835955143, 0.0, 0.0, 0.0, 0.0, 0.0, 1.7151015503056872E9, 0.0, 2024-05-07 12:05:50.305
91.0, 52.371689029503614, -261.4676256021485, 92.6915504517965, -62.013151115272194, -0.04800000227987766, 1.008000047877431, -0.17600000835955143, 0.0, 0.0, 0.0, 0.0, 0.0, 1.7151015503057115E9, 0.0, 2024-05-07 12:05:50.305
92.0, -86.56933422433212, -384.9142433395609, -2.900292415637523, -169.93918403657153, -0.04800000227987766, 1.008000047877431, -0.17600000835955143, 0.0, 0.0, 0.0, 0.0, 0.0, 1.7151015503063736E9, 0.0, 2024-05-07 12:05:50.306
92.0, -37.73372060293332, -339.59039577655494, -4.1232397011481225, -142.6416542599909, -0.04800000227987766, 1.008000047877431, -0.17600000835955143, 0.0, 0.0, 0.0, 0.0, 0.0, 1.7151015503063889E9, 0.0, 2024-05-07 12:05:50.306
93.0, 89.94272398436442, -229.79441287741065, 165.25682929204777, -35.15318963350728, -0.04800000227987766, 1.008000047877431, -0.17600000835955143, 0.0, 0.0, 0.0, 0.0, 0.0, 1.7151015503332465E9, 0.0, 2024-05-07 12:05:50.333
93.0, -50.729872948955745, -355.19325839169323, -15.421477467287332, -132.42050768109038, -0.04800000227987766, 1.008000047877431, -0.17600000835955143, 0.0, 0.0, 0.0, 0.0, 0.0, 1.715101550333264E9, 0.0, 2024-05-07 12:05:50.333
94.0, -91.53218146553263, -383.635197554715, -12.29492110433057, -179.1056788279675, -0.04800000227987766, 1.008000047877431, -0.17600000835955143, 0.0, 0.0, 0.0, 0.0, 0.0, 1.71510155036322E9, 0.0, 2024-05-07 12:05:50.363
94.0, 72.2006385945715, -231.50728705711663, 85.60070013580844, -27.400377025362104, -0.04800000227987766, 1.008000047877431, -0.17600000835955143, 0.0, 0.0, 0.0, 0.0, 0.0, 1.715101550363238E9, 0.0, 2024-05-07 12:05:50.363
95.0, -0.7722893408499658, -309.7833931297064, 67.14803375443444, -120.50144652230665, -0.04800000227987766, 1.008000047877431, -0.17600000835955143, 0.0, 0.0, 0.0, 0.0, 0.0, 1.7151015503633783E9, 0.0, 2024-05-07 12:05:50.363
95.0, -115.83779127756134, -405.69686739332974, -72.81772208726034, -180.4408231121488, -0.04800000227987766, 1.008000047877431, -0.17600000835955143, 0.0, 0.0, 0.0, 0.0, 0.0, 1.7151015503633869E9, 0.0, 2024-05-07 12:05:50.363
96.0, 10.432450926396996, -270.33866829704493, 96.55486710602418, -88.10643310612068, -0.04800000227987766, 1.008000047877431, -0.17600000835955143, 0.0, 0.0, 0.0, 0.0, 0.0, 1.7151015503640873E9, 0.0, 2024-05-07 12:05:50.364
96.0, 49.63782216189429, -261.8603150974959, 73.91725267423317, -49.106756368186325, -0.04800000227987766, 1.008000047877431, -0.17600000835955143, 0.0, 0.0, 0.0, 0.0, 0.0, 1.7151015503640985E9, 0.0, 2024-05-07 12:05:50.364
97.0, -96.45014990726486, -400.3675099564716, -14.72211617557332, -178.544693834614, -0.04800000227987766, 1.008000047877431, -0.17600000835955143, 0.0, 0.0, 0.0, 0.0, 0.0, 1.7151015503647068E9, 0.0, 2024-05-07 12:05:50.364
97.0, -36.55939201684669, -352.8259017197415, 15.90766446152702, -143.5280105494894, -0.04800000227987766, 1.008000047877431, -0.17600000835955143, 0.0, 0.0, 0.0, 0.0, 0.0, 1.7151015503647156E9, 0.0, 2024-05-07 12:05:50.364
98.0, 80.07686790125445, -230.28059987165034, 156.4306653966196, -12.033128107432276, -0.04800000227987766, 1.008000047877431, -0.17600000835955143, 0.0, 0.0, 0.0, 0.0, 0.0, 1.7151015503657413E9, 0.0, 2024-05-07 12:05:50.365
98.0, -48.48219307558611, -350.3126889495179, -19.07535972399637, -144.7172987353988, -0.04800000227987766, 1.008000047877431, -0.17600000835955143, 0.0, 0.0, 0.0, 0.0, 0.0, 1.7151015503657577E9, 0.0, 2024-05-07 12:05:50.365
99.0, -85.81387443328276, -363.9408843880519, -1.688564829993993, -170.53756802948192, -0.04800000227987766, 1.008000047877431, -0.17600000835955143, 0.0, 0.0, 0.0, 0.0, 0.0, 1.7151015503931832E9, 0.0, 2024-05-07 12:05:50.393
99.0, 80.82110799243674, -223.43284305278212, 100.53786055883393, -31.63768367515877, -0.04800000227987766, 1.008000047877431, -0.17600000835955143, 0.0, 0.0, 0.0, 0.0, 0.0, 1.7151015503932068E9, 0.0, 2024-05-07 12:05:50.393
100.0, -7.803301257546991, -294.59939930960536, 68.02691024402156, -95.35061932029203, -0.04800000227987766, 1.008000047877431, -0.1600000075995922, 0.0, 0.0, 0.0, 0.0, 0.0, 1.7151015503934634E9, 0.0, 2024-05-07 12:05:50.393
100.0, -96.32673320872709, -382.27013407088816, -58.404147658031434, -169.12762574618682, -0.04800000227987766, 1.008000047877431, -0.1600000075995922, 0.0, 0.0, 0.0, 0.0, 0.0, 1.7151015503934796E9, 0.0, 2024-05-07 12:05:50.393
0.0, 37.84404765162617, -297.66050742333755, 131.0105653977953, -88.55522110080346, -0.04800000227987766, 1.008000047877431, -0.1600000075995922, 0.0, 0.0, 0.0, 0.0, 0.0, 1.7151015504233463E9, 0.0, 2024-05-07 12:05:50.423
1.0, 48.955290419980884, -270.6696494431235, 108.12237766897306, -58.13861476117745, -0.04800000227987766, 1.0240000486373901, -0.1600000075995922, 0.0, 0.0, 0.0, 0.0, 0.0, 1.7151015504234562E9, 0.0, 2024-05-07 12:05:50.423
1.0, -79.83190445415676, -410.85979928215966, 19.396991120185703, -178.45493623567745, -0.04800000227987766, 1.0240000486373901, -0.1600000075995922, 0.0, 0.0, 0.0, 0.0, 0.0, 1.7151015504234755E9, 0.0, 2024-05-07 12:05:50.423
2.0, -42.27582909911871, -354.6640625479631, 45.73336660815403, -138.25849151192233, -0.04800000227987766, 1.0240000486373901, -0.1600000075995922, 0.0, 0.0, 0.0, 0.0, 0.0, 1.7151015504241107E9, 0.0, 2024-05-07 12:05:50.424
2.0, 92.30821070633829, -223.47959180222824, 190.20196199649945, -13.005502095911652, -0.04800000227987766, 1.0240000486373901, -0.1600000075995922, 0.0, 0.0, 0.0, 0.0, 0.0, 1.71510155042412E9, 0.0, 2024-05-07 12:05:50.424
3.0, -51.42362439073622, -359.66056888876483, 14.976429372560233, -145.0538897314109, -0.04800000227987766, 1.0240000486373901, -0.1600000075995922, 0.0, 0.0, 0.0, 0.0, 0.0, 1.7151015504249518E9, 0.0, 2024-05-07 12:05:50.424
3.0, -76.15558279771358, -394.1312267803587, 34.76050013815984, -176.90287775406614, -0.04800000227987766, 1.0240000486373901, -0.1600000075995922, 0.0, 0.0, 0.0, 0.0, 0.0, 1.7151015504249644E9, 0.0, 2024-05-07 12:05:50.424
4.0, 75.88257010094821, -244.40059215435758, 136.1529278368689, -31.671342774759978, -0.04800000227987766, 1.0240000486373901, -0.1600000075995922, 0.0, 0.0, 0.0, 0.0, 0.0, 1.715101550452984E9, 0.0, 2024-05-07 12:05:50.452
4.0, -7.083370516076684, -316.66293909819797, 88.68611759925261, -104.29646001430228, -0.04800000227987766, 1.0240000486373901, -0.1600000075995922, 0.0, 0.0, 0.0, 0.0, 0.0, 1.715101550452999E9, 0.0, 2024-05-07 12:05:50.452
5.0, -90.9693265222013, -405.9567904402502, -24.00080796563998, -171.88767191348597, -0.04800000227987766, 1.0240000486373901, -0.1600000075995922, 0.0, 0.0, 0.0, 0.0, 0.0, 1.7151015504536312E9, 0.0, 2024-05-07 12:05:50.453
5.0, 25.487418198026717, -290.7117733056657, 113.85564430104569, -83.34180056257173, -0.04800000227987766, 1.0240000486373901, -0.1600000075995922, 0.0, 0.0, 0.0, 0.0, 0.0, 1.7151015504536448E9, 0.0, 2024-05-07 12:05:50.453
6.0, 45.61181985959411, -262.0005613458343, 115.28428608411923, -66.863801357802, -0.04800000227987766, 1.0240000486373901, -0.1600000075995922, 0.0, 0.0, 0.0, 0.0, 0.0, 1.7151015504545264E9, 0.0, 2024-05-07 12:05:50.454
6.0, -76.18924189731479, -406.3233006359078, 5.215290488209575, -177.16841065092012, -0.04800000227987766, 1.0240000486373901, -0.1600000075995922, 0.0, 0.0, 0.0, 0.0, 0.0, 1.7151015504545496E9, 0.0, 2024-05-07 12:05:50.454
7.0, -38.33397454582155, -351.15977628948167, 29.307726002763957, -156.12025370029733, -0.04800000227987766, 1.0240000486373901, -0.1600000075995922, 0.0, 0.0, 0.0, 0.0, 0.0, 1.7151015505132537E9, 0.0, 2024-05-07 12:05:50.513
7.0, 89.21157354302704, -237.9829238303937, 169.69983043940738, -22.31785298557952, -0.04800000227987766, 1.0240000486373901, -0.1600000075995922, 0.0, 0.0, 0.0, 0.0, 0.0, 1.715101550513286E9, 0.0, 2024-05-07 12:05:50.513
8.0, -56.0648402357474, -372.2640317394398, 20.623678305651993, -148.56191588984802, -0.04800000227987766, 1.0240000486373901, -0.1600000075995922, 0.0, 0.0, 0.0, 0.0, 0.0, 1.7151015505133812E9, 0.0, 2024-05-07 12:05:50.513
8.0, -84.90694869402796, -414.2556284419261, -6.2587225758470595, -164.88283929647878, -0.04800000227987766, 1.0240000486373901, -0.1600000075995922, 0.0, 0.0, 0.0, 0.0, 0.0, 1.7151015505133898E9, 0.0, 2024-05-07 12:05:50.513
9.0, 66.91055010724813, -248.45838360628113, 166.18806438101456, -38.597637492697686, -0.04800000227987766, 1.0240000486373901, -0.1600000075995922, 0.0, 0.0, 0.0, 0.0, 0.0, 1.715101550514186E9, 0.0, 2024-05-07 12:05:50.514
9.0, -4.169988450594246, -316.22537080338225, 51.17118114372715, -106.20754889165983, -0.04800000227987766, 1.0240000486373901, -0.1600000075995922, 0.0, 0.0, 0.0, 0.0, 0.0, 1.7151015505142016E9, 0.0, 2024-05-07 12:05:50.514
10.0, -95.65916106663644, -419.9589758743532, -8.6522585474886, -186.02449374599382, -0.04800000227987766, 1.0240000486373901, -0.17600000835955143, 0.0, 0.0, 0.0, 0.0, 0.0, 1.7151015505147057E9, 0.0, 2024-05-07 12:05:50.514
10.0, 30.487664438784122, -308.9063865900971, 99.01946117682382, -92.77756815077737, -0.04800000227987766, 1.0240000486373901, -0.17600000835955143, 0.0, 0.0, 0.0, 0.0, 0.0, 1.715101550514714E9, 0.0, 2024-05-07 12:05:50.514
11.0, 60.197429686784744, -272.17308922531083, 162.2836088272743, -60.393774434458464, -0.04800000227987766, 1.008000047877431, -0.17600000835955143, 0.0, 0.0, 0.0, 0.0, 0.0, 1.715101550515372E9, 0.0, 2024-05-07 12:05:50.515
11.0, -81.6307963328436, -415.96850262163207, -32.88307036040351, -155.85846070339903, -0.04800000227987766, 1.008000047877431, -0.17600000835955143, 0.0, 0.0, 0.0, 0.0, 0.0, 1.7151015505153809E9, 0.0, 2024-05-07 12:05:50.515
12.0, -28.658853360451758, -362.6300494535826, 61.560623220633715, -134.25305865937844, -0.06400000303983688, 1.008000047877431, -0.17600000835955143, 0.0, 0.0, 0.0, 0.0, 0.0, 1.7151015505162957E9, 0.0, 2024-05-07 12:05:50.516
12.0, 77.1092572864145, -209.87757566338405, 127.1921275430359, -18.71632932825014, -0.06400000303983688, 1.008000047877431, -0.17600000835955143, 0.0, 0.0, 0.0, 0.0, 0.0, 1.7151015505163069E9, 0.0, 2024-05-07 12:05:50.516
13.0, -55.728249239735305, -358.5572984018363, 51.25345894275233, -131.8931817873381, -0.06400000303983688, 1.008000047877431, -0.17600000835955143, 0.0, 0.0, 0.0, 0.0, 0.0, 1.7151015505737917E9, 0.0, 2024-05-07 12:05:50.573
13.0, -71.70510185044259, -401.3529735947959, -4.441131197381765, -177.3591455486603, -0.06400000303983688, 1.008000047877431, -0.17600000835955143, 0.0, 0.0, 0.0, 0.0, 0.0, 1.7151015505738146E9, 0.0, 2024-05-07 12:05:50.573
14.0, 85.72224688436836, -234.3103420739062, 174.7636549794115, -15.638391664717346, -0.06400000303983688, 1.008000047877431, -0.17600000835955143, 0.0, 0.0, 0.0, 0.0, 0.0, 1.7151015505739353E9, 0.0, 2024-05-07 12:05:50.573
14.0, 5.310657937079668, -298.76751781022176, 74.96068476187065, -83.53253546031192, -0.06400000303983688, 1.008000047877431, -0.17600000835955143, 0.0, 0.0, 0.0, 0.0, 0.0, 1.7151015505739627E9, 0.0, 2024-05-07 12:05:50.573
15.0, -104.51898406166583, -411.79103437112644, -9.149665241595358, -176.3568523605354, -0.06400000303983688, 1.008000047877431, -0.17600000835955143, 0.0, 0.0, 0.0, 0.0, 0.0, 1.7151015505742555E9, 0.0, 2024-05-07 12:05:50.574
15.0, 23.669826819561422, -290.4574601086788, 100.81087325559929, -66.65062706032768, -0.06400000303983688, 1.008000047877431, -0.17600000835955143, 0.0, 0.0, 0.0, 0.0, 0.0, 1.715101550574272E9, 0.0, 2024-05-07 12:05:50.574
16.0, 44.69180447049439, -272.3301650234498, 106.41324338922277, -43.070557839702815, -0.06400000303983688, 1.008000047877431, -0.17600000835955143, 0.0, 0.0, 0.0, 0.0, 0.0, 1.7151015505749264E9, 0.0, 2024-05-07 12:05:50.574
16.0, -85.82322418317199, -411.4656630749814, -0.884486339520663, -153.93241222621873, -0.06400000303983688, 1.008000047877431, -0.17600000835955143, 0.0, 0.0, 0.0, 0.0, 0.0, 1.7151015505749445E9, 0.0, 2024-05-07 12:05:50.574
17.0, -29.35447475221008, -365.55091131897643, 17.44476334331557, -115.93876857636496, -0.06400000303983688, 1.008000047877431, -0.17600000835955143, 0.0, 0.0, 0.0, 0.0, 0.0, 1.7151015505755725E9, 0.0, 2024-05-07 12:05:50.575
17.0, 74.76434001419693, -237.2424236391671, 191.24539408413693, -23.032173877116293, -0.06400000303983688, 1.008000047877431, -0.17600000835955143, 0.0, 0.0, 0.0, 0.0, 0.0, 1.715101550575584E9, 0.0, 2024-05-07 12:05:50.575
18.0, -47.78470173384994, -371.0410844539292, 17.429803743492812, -126.38804905256256, -0.06400000303983688, 1.008000047877431, -0.17600000835955143, 0.0, 0.0, 0.0, 0.0, 0.0, 1.7151015505763788E9, 0.0, 2024-05-07 12:05:50.576
18.0, -75.19068860914558, -402.7703956780024, 26.33076563803479, -155.88090010313317, -0.06400000303983688, 1.008000047877431, -0.17600000835955143, 0.0, 0.0, 0.0, 0.0, 0.0, 1.7151015505763865E9, 0.0, 2024-05-07 12:05:50.576
19.0, 69.31156587880105, -243.53293536463752, 141.09707557829097, -26.6972758336924, -0.06400000303983688, 1.008000047877431, -0.17600000835955143, 0.0, 0.0, 0.0, 0.0, 0.0, 1.7151015506334047E9, 0.0, 2024-05-07 12:05:50.633
19.0, 1.365063483826816, -320.1709652566351, 94.11645233491436, -82.91919186757877, -0.06400000303983688, 1.008000047877431, -0.17600000835955143, 0.0, 0.0, 0.0, 0.0, 0.0, 1.715101550633421E9, 0.0, 2024-05-07 12:05:50.633
20.0, -97.96667933929712, -407.0712806270458, -30.197822192218155, -176.38303166022524, -0.06400000303983688, 1.008000047877431, -0.1600000075995922, 0.0, 0.0, 0.0, 0.0, 0.0, 1.7151015506335216E9, 0.0, 2024-05-07 12:05:50.633
20.0, 19.585856067948043, -297.4510730258189, 121.40276241162792, -69.54530962603167, -0.06400000303983688, 1.008000047877431, -0.1600000075995922, 0.0, 0.0, 0.0, 0.0, 0.0, 1.7151015506335332E9, 0.0, 2024-05-07 12:05:50.633
21.0, 60.09645238798112, -257.7632546960376, 85.82883403310552, -44.630096121225506, -0.06400000303983688, 1.0240000486373901, -0.1600000075995922, 0.0, 0.0, 0.0, 0.0, 0.0, 1.7151015506340723E9, 0.0, 2024-05-07 12:05:50.634
21.0, -87.08731036819518, -408.3540663118474, 6.726210070308298, -173.70152339199558, -0.06400000303983688, 1.0240000486373901, -0.1600000075995922, 0.0, 0.0, 0.0, 0.0, 0.0, 1.715101550634078E9, 0.0, 2024-05-07 12:05:50.634
22.0, -34.50057709123939, -344.04648657375947, 37.389649807009846, -108.17099636839703, -0.0800000037997961, 1.0240000486373901, -0.1600000075995922, 0.0, 0.0, 0.0, 0.0, 0.0, 1.7151015506347322E9, 0.0, 2024-05-07 12:05:50.634
22.0, 82.75276631955057, -213.84560951637104, 192.78623286588117, -22.168256987351924, -0.0800000037997961, 1.0240000486373901, -0.1600000075995922, 0.0, 0.0, 0.0, 0.0, 0.0, 1.7151015506347473E9, 0.0, 2024-05-07 12:05:50.634
23.0, -39.88977292738855, -367.9781063902192, 5.1292727892287076, -132.71969967754558, -0.0800000037997961, 1.0240000486373901, -0.1600000075995922, 0.0, 0.0, 0.0, 0.0, 0.0, 1.7151015506354785E9, 0.0, 2024-05-07 12:05:50.635
23.0, -77.93951507657766, -379.6054553524591, 15.054967271629721, -152.93011903809384, -0.0800000037997961, 1.0240000486373901, -0.1600000075995922, 0.0, 0.0, 0.0, 0.0, 0.0, 1.7151015506354887E9, 0.0, 2024-05-07 12:05:50.635
24.0, 73.04024613462389, -248.24146940885112, 127.49879933940247, -35.62441702792421, -0.0800000037997961, 1.0240000486373901, -0.1600000075995922, 0.0, 0.0, 0.0, 0.0, 0.0, 1.7151015506363096E9, 0.0, 2024-05-07 12:05:50.636
24.0, -8.949580593965948, -319.5351822641678, 101.90292404266074, -78.07228152500466, -0.0800000037997961, 1.0240000486373901, -0.1600000075995922, 0.0, 0.0, 0.0, 0.0, 0.0, 1.7151015506363199E9, 0.0, 2024-05-07 12:05:50.636
25.0, -84.80223149526864, -409.4648165986873, -41.60451705707237, -189.94764879951254, -0.0800000037997961, 1.0240000486373901, -0.1600000075995922, 0.0, 0.0, 0.0, 0.0, 0.0, 1.7151015506931624E9, 0.0, 2024-05-07 12:05:50.693
25.0, 11.459053464233875, -302.99734466010705, 122.23302020179108, -69.6088879252784, -0.0800000037997961, 1.0240000486373901, -0.1600000075995922, 0.0, 0.0, 0.0, 0.0, 0.0, 1.7151015506931837E9, 0.0, 2024-05-07 12:05:50.693
26.0, 32.006063820794225, -271.75796033022925, 91.68551736371592, -34.86895723687485, -0.0800000037997961, 1.0240000486373901, -0.1600000075995922, 0.0, 0.0, 0.0, 0.0, 0.0, 1.7151015506934547E9, 0.0, 2024-05-07 12:05:50.693
26.0, -91.17128111980855, -400.1300263092853, 6.000669478904456, -183.32054607803002, -0.0800000037997961, 1.0240000486373901, -0.1600000075995922, 0.0, 0.0, 0.0, 0.0, 0.0, 1.715101550693466E9, 0.0, 2024-05-07 12:05:50.693
27.0, -36.93899186234921, -356.24604022921994, 12.205163505394012, -119.95916102873161, -0.0800000037997961, 1.0240000486373901, -0.1600000075995922, 0.0, 0.0, 0.0, 0.0, 0.0, 1.7151015506940627E9, 0.0, 2024-05-07 12:05:50.694
27.0, 78.64261626824737, -229.9084798260592, 187.67004972649738, -10.013582131359726, -0.0800000037997961, 1.0240000486373901, -0.1600000075995922, 0.0, 0.0, 0.0, 0.0, 0.0, 1.7151015506940713E9, 0.0, 2024-05-07 12:05:50.694
28.0, -55.66841084044427, -373.58795632375404, 13.420630990993232, -130.24014600692317, -0.0800000037997961, 1.0240000486373901, -0.1600000075995922, 0.0, 0.0, 0.0, 0.0, 0.0, 1.7151015506947193E9, 0.0, 2024-05-07 12:05:50.694
28.0, -78.2574065728113, -383.10226181102917, 17.665417440701276, -138.25475161196664, -0.0800000037997961, 1.0240000486373901, -0.1600000075995922, 0.0, 0.0, 0.0, 0.0, 0.0, 1.7151015506947267E9, 0.0, 2024-05-07 12:05:50.694
29.0, 60.27222768589854, -243.21878376835957, 123.72150038415566, -38.13388989819214, -0.0800000037997961, 1.0240000486373901, -0.1600000075995922, 0.0, 0.0, 0.0, 0.0, 0.0, 1.715101550695383E9, 0.0, 2024-05-07 12:05:50.695
29.0, 9.203893790952861, -316.07577480515465, 93.43953044293448, -84.40767204994336, -0.0800000037997961, 1.0240000486373901, -0.1600000075995922, 0.0, 0.0, 0.0, 0.0, 0.0, 1.7151015506953895E9, 0.0, 2024-05-07 12:05:50.695
30.0, -91.97909951023757, -394.78196937264875, -35.94978832406923, -163.97404360724613, -0.0800000037997961, 1.0240000486373901, -0.19200000911951065, 0.0, 0.0, 0.0, 0.0, 0.0, 1.7151015506962757E9, 0.0, 2024-05-07 12:05:50.696
30.0, 35.68986527714878, -291.8561826921068, 111.80243922537193, -67.9034935454838, -0.0800000037997961, 1.0240000486373901, -0.19200000911951065, 0.0, 0.0, 0.0, 0.0, 0.0, 1.7151015506962807E9, 0.0, 2024-05-07 12:05:50.696
31.0, 47.86697953287512, -269.31580565916374, 100.70241615688428, -46.84785679494962, -0.0800000037997961, 1.008000047877431, -0.19200000911951065, 0.0, 0.0, 0.0, 0.0, 0.0, 1.7151015507229729E9, 0.0, 2024-05-07 12:05:50.722
31.0, -90.68135422561318, -411.56290047382936, 0.024309349711984396, -180.5866792104207, -0.0800000037997961, 1.008000047877431, -0.19200000911951065, 0.0, 0.0, 0.0, 0.0, 0.0, 1.715101550722985E9, 0.0, 2024-05-07 12:05:50.722
32.0, -34.392119992524385, -345.3030929588713, 34.595944540109485, -137.24497862393036, -0.04800000227987766, 1.008000047877431, -0.19200000911951065, 0.0, 0.0, 0.0, 0.0, 0.0, 1.7151015507234347E9, 0.0, 2024-05-07 12:05:50.723
32.0, 88.99465934559703, -218.93187345610932, 175.42187737161294, -14.72211617557332, -0.04800000227987766, 1.008000047877431, -0.19200000911951065, 0.0, 0.0, 0.0, 0.0, 0.0, 1.7151015507234423E9, 0.0, 2024-05-07 12:05:50.723
33.0, -56.78664092719555, -372.937213731464, 17.15679104672745, -142.87726795719936, -0.04800000227987766, 1.008000047877431, -0.19200000911951065, 0.0, 0.0, 0.0, 0.0, 0.0, 1.7151015507533941E9, 0.0, 2024-05-07 12:05:50.753
33.0, -96.57169665582478, -397.48965694056824, -10.428711026441306, -164.92023829603568, -0.04800000227987766, 1.008000047877431, -0.19200000911951065, 0.0, 0.0, 0.0, 0.0, 0.0, 1.715101550753423E9, 0.0, 2024-05-07 12:05:50.753
34.0, 85.1874411907047, -243.15520546911284, 140.4538127859123, -44.18130812654272, -0.04800000227987766, 1.008000047877431, -0.19200000911951065, 0.0, 0.0, 0.0, 0.0, 0.0, 1.7151015507534485E9, 0.0, 2024-05-07 12:05:50.753
34.0, 14.791304324753582, -319.37810646602884, 85.44736423762515, -96.16217761067674, -0.04800000227987766, 1.008000047877431, -0.19200000911951065, 0.0, 0.0, 0.0, 0.0, 0.0, 1.7151015507534573E9, 0.0, 2024-05-07 12:05:50.753
35.0, -114.90094633866102, -411.5815999736078, -20.582539406139404, -163.23354341601953, -0.04800000227987766, 1.008000047877431, -0.19200000911951065, 0.0, 0.0, 0.0, 0.0, 0.0, 1.715101550754256E9, 0.0, 2024-05-07 12:05:50.754
35.0, 29.42927275132388, -292.4919656845741, 107.98774127056822, -80.5742745953612, -0.04800000227987766, 1.008000047877431, -0.19200000911951065, 0.0, 0.0, 0.0, 0.0, 0.0, 1.7151015507542682E9, 0.0, 2024-05-07 12:05:50.754
36.0, 48.42422462627292, -276.6609691721387, 111.20779513241723, -40.71816076757386, -0.04800000227987766, 1.008000047877431, -0.19200000911951065, 0.0, 0.0, 0.0, 0.0, 0.0, 1.7151015507551627E9, 0.0, 2024-05-07 12:05:50.755
36.0, -90.90574822295457, -404.04944146284834, 7.204917264636606, -175.1750439745374, -0.04800000227987766, 1.008000047877431, -0.19200000911951065, 0.0, 0.0, 0.0, 0.0, 0.0, 1.7151015507551796E9, 0.0, 2024-05-07 12:05:50.755
37.0, -25.37522119935602, -334.5471406863071, 19.07535972399637, -138.48288550926372, -0.04800000227987766, 1.008000047877431, -0.19200000911951065, 0.0, 0.0, 0.0, 0.0, 0.0, 1.715101550813257E9, 0.0, 2024-05-07 12:05:50.813
37.0, 88.82636384759098, -215.09847600152716, 176.05392046412453, -9.83406693348661, -0.04800000227987766, 1.008000047877431, -0.19200000911951065, 0.0, 0.0, 0.0, 0.0, 0.0, 1.7151015508132899E9, 0.0, 2024-05-07 12:05:50.813
38.0, -59.24749509803951, -358.4077024036087, 6.887025768402964, -142.9371063564904, -0.04800000227987766, 1.008000047877431, -0.19200000911951065, 0.0, 0.0, 0.0, 0.0, 0.0, 1.715101550813712E9, 0.0, 2024-05-07 12:05:50.813
38.0, -88.67676784936339, -389.6919655329548, 8.095013454090804, -154.43355882028118, -0.04800000227987766, 1.008000047877431, -0.19200000911951065, 0.0, 0.0, 0.0, 0.0, 0.0, 1.7151015508137255E9, 0.0, 2024-05-07 12:05:50.813
39.0, 73.71342812664807, -234.3888799729757, 127.79799133585766, -17.53452094225213, -0.04800000227987766, 1.008000047877431, -0.19200000911951065, 0.0, 0.0, 0.0, 0.0, 0.0, 1.7151015508142664E9, 0.0, 2024-05-07 12:05:50.814
39.0, -3.055498263798654, -300.5963288885541, 85.91859163204208, -98.78758737957105, -0.04800000227987766, 1.008000047877431, -0.19200000911951065, 0.0, 0.0, 0.0, 0.0, 0.0, 1.7151015508142836E9, 0.0, 2024-05-07 12:05:50.814
40.0, -113.46856465563178, -403.1443856735714, -41.15198916243389, -173.0620004995726, -0.04800000227987766, 1.008000047877431, -0.19200000911951065, 0.0, 0.0, 0.0, 0.0, 0.0, 1.7151015508150501E9, 0.0, 2024-05-07 12:05:50.815
40.0, 17.27459789533168, -276.05884527927265, 130.2999844062142, -77.88528652722016, -0.04800000227987766, 1.008000047877431, -0.19200000911951065, 0.0, 0.0, 0.0, 0.0, 0.0, 1.715101550815071E9, 0.0, 2024-05-07 12:05:50.815
41.0, 54.85685255005956, -259.48734857561067, 93.75742193916813, -56.95680637517944, -0.04800000227987766, 1.0240000486373901, -0.19200000911951065, 0.0, 0.0, 0.0, 0.0, 0.0, 1.715101550815528E9, 0.0, 2024-05-07 12:05:50.815
41.0, -96.27250465936959, -387.0104572647251, -1.0415621376596391, -173.75388199137524, -0.04800000227987766, 1.0240000486373901, -0.19200000911951065, 0.0, 0.0, 0.0, 0.0, 0.0, 1.7151015508155377E9, 0.0, 2024-05-07 12:05:50.815
42.0, -50.959876796230674, -341.7651476007886, 9.572273936588317, -147.3127893046476, -0.04800000227987766, 1.0240000486373901, -0.19200000911951065, 0.0, 0.0, 0.0, 0.0, 0.0, 1.7151015508165605E9, 0.0, 2024-05-07 12:05:50.816
42.0, 78.90814916510135, -214.10366261331365, 179.37121172482148, -10.66058482369408, -0.04800000227987766, 1.0240000486373901, -0.19200000911951065, 0.0, 0.0, 0.0, 0.0, 0.0, 1.7151015508165765E9, 0.0, 2024-05-07 12:05:50.816
43.0, -59.0642400002107, -359.7465865877457, -4.097060401458293, -129.4510271162726, -0.04800000227987766, 1.0240000486373901, -0.19200000911951065, 0.0, 0.0, 0.0, 0.0, 0.0, 1.7151015508433738E9, 0.0, 2024-05-07 12:05:50.843
43.0, -92.83179670013487, -398.07682123361155, 18.836006126832217, -162.5790609237738, -0.04800000227987766, 1.0240000486373901, -0.19200000911951065, 0.0, 0.0, 0.0, 0.0, 0.0, 1.715101550843396E9, 0.0, 2024-05-07 12:05:50.843
44.0, 82.53959202207625, -241.247856491711, 135.10201594932005, -31.25247397972271, -0.04800000227987766, 1.0240000486373901, -0.19200000911951065, 0.0, 0.0, 0.0, 0.0, 0.0, 1.715101550843686E9, 0.0, 2024-05-07 12:05:50.843
44.0, -10.976606369949877, -313.4241857365705, 99.96565586561337, -95.72460931586102, -0.04800000227987766, 1.0240000486373901, -0.19200000911951065, 0.0, 0.0, 0.0, 0.0, 0.0, 1.7151015508436992E9, 0.0, 2024-05-07 12:05:50.843
45.0, -110.57762198988348, -416.9184372103773, -33.032666358631104, -168.07671385863796, -0.04800000227987766, 1.0240000486373901, -0.19200000911951065, 0.0, 0.0, 0.0, 0.0, 0.0, 1.7151015508444512E9, 0.0, 2024-05-07 12:05:50.844
45.0, 25.113428202457726, -274.7498802947812, 129.55200441507623, -76.1649325476028, -0.04800000227987766, 1.0240000486373901, -0.19200000911951065, 0.0, 0.0, 0.0, 0.0, 0.0, 1.7151015508444643E9, 0.0, 2024-05-07 12:05:50.844
46.0, 59.25497489795089, -263.3357056300156, 92.46715645445511, -47.28916498972103, -0.04800000227987766, 1.0240000486373901, -0.19200000911951065, 0.0, 0.0, 0.0, 0.0, 0.0, 1.7151015508731055E9, 0.0, 2024-05-07 12:05:50.873
46.0, -84.70125419646502, -397.9945434345864, 22.463709083851427, -176.12871846323833, -0.04800000227987766, 1.0240000486373901, -0.19200000911951065, 0.0, 0.0, 0.0, 0.0, 0.0, 1.7151015508731253E9, 0.0, 2024-05-07 12:05:50.873
47.0, -39.85237392783165, -337.07905295630917, 20.638637905474752, -133.54621756775305, -0.04800000227987766, 1.0240000486373901, -0.19200000911951065, 0.0, 0.0, 0.0, 0.0, 0.0, 1.7151015508734455E9, 0.0, 2024-05-07 12:05:50.873
47.0, 93.38530189357698, -210.2627853588201, 177.7331355442293, -4.859999992419034, -0.04800000227987766, 1.0240000486373901, -0.19200000911951065, 0.0, 0.0, 0.0, 0.0, 0.0, 1.7151015508734584E9, 0.0, 2024-05-07 12:05:50.873
48.0, -53.84333966206759, -346.01741385040805, -11.962070008274168, -147.11457460699603, -0.04800000227987766, 1.0240000486373901, -0.19200000911951065, 0.0, 0.0, 0.0, 0.0, 0.0, 1.7151015509035027E9, 0.0, 2024-05-07 12:05:50.903
48.0, -84.49181979894638, -372.06955694174394, 15.413997667375952, -160.08080775337294, -0.04800000227987766, 1.0240000486373901, -0.19200000911951065, 0.0, 0.0, 0.0, 0.0, 0.0, 1.7151015509035263E9, 0.0, 2024-05-07 12:05:50.903
49.0, 65.67264322191477, -224.10415509482846, 105.807379596401, -21.442716395948082, -0.04800000227987766, 1.0240000486373901, -0.19200000911951065, 0.0, 0.0, 0.0, 0.0, 0.0, 1.715101550903638E9, 0.0, 2024-05-07 12:05:50.903
49.0, -9.087956892326474, -298.3523889151402, 74.73629076452926, -100.76225455617532, -0.04800000227987766, 1.0240000486373901, -0.19200000911951065, 0.0, 0.0, 0.0, 0.0, 0.0, 1.7151015509036496E9, 0.0, 2024-05-07 12:05:50.903
50.0, -106.65072703640908, -377.122161781881, -63.69236619537696, -169.16502474574372, -0.04800000227987766, 1.0240000486373901, -0.17600000835955143, 0.0, 0.0, 0.0, 0.0, 0.0, 1.7151015509042883E9, 0.0, 2024-05-07 12:05:50.904
50.0, 19.974805663339794, -261.0768060567789, 106.74235458532348, -76.96153123816475, -0.04800000227987766, 1.0240000486373901, -0.17600000835955143, 0.0, 0.0, 0.0, 0.0, 0.0, 1.7151015509043043E9, 0.0, 2024-05-07 12:05:50.904
51.0, 40.19270482379943, -236.16159255197272, 78.12464012438431, -61.34744892315939, -0.04800000227987766, 1.008000047877431, -0.17600000835955143, 0.0, 0.0, 0.0, 0.0, 0.0, 1.715101551023158E9, 0.0, 2024-05-07 12:05:51.023
51.0, -106.64698713645339, -362.9217616501264, -7.272235463839024, -165.33910709107295, -0.04800000227987766, 1.008000047877431, -0.17600000835955143, 0.0, 0.0, 0.0, 0.0, 0.0, 1.715101551023168E9, 0.0, 2024-05-07 12:05:51.023
52.0, -66.88811070751399, -312.26481675030664, -13.297214292455465, -128.3739359290339, -0.06400000303983688, 1.008000047877431, -0.17600000835955143, 0.0, 0.0, 0.0, 0.0, 0.0, 1.7151015510234048E9, 0.0, 2024-05-07 12:05:51.023
52.0, 51.307687492109835, -207.13622899586335, 164.46023060148582, -27.722008421551436, -0.06400000303983688, 1.008000047877431, -0.17600000835955143, 0.0, 0.0, 0.0, 0.0, 0.0, 1.7151015510234106E9, 0.0, 2024-05-07 12:05:51.023
53.0, -69.76409377343953, -332.9876024047844, -5.993189678993076, -155.51065000751987, -0.06400000303983688, 1.008000047877431, -0.17600000835955143, 0.0, 0.0, 0.0, 0.0, 0.0, 1.7151015510241296E9, 0.0, 2024-05-07 12:05:51.024
53.0, -101.6056019961834, -362.42809485597536, 8.884132344741374, -159.26550956303254, -0.06400000303983688, 1.008000047877431, -0.17600000835955143, 0.0, 0.0, 0.0, 0.0, 0.0, 1.7151015510241432E9, 0.0, 2024-05-07 12:05:51.024
54.0, 52.35485947970301, -196.24190042493865, 122.80148499505594, -30.149203492794186, -0.06400000303983688, 1.008000047877431, -0.17600000835955143, 0.0, 0.0, 0.0, 0.0, 0.0, 1.7151015510247672E9, 0.0, 2024-05-07 12:05:51.024
54.0, -26.766463982872665, -277.3790299636312, 101.83560584345832, -94.74101562751457, -0.06400000303983688, 1.008000047877431, -0.17600000835955143, 0.0, 0.0, 0.0, 0.0, 0.0, 1.715101551024777E9, 0.0, 2024-05-07 12:05:51.024
55.0, -117.30196211021394, -371.65816794661805, -35.13449013372883, -158.77558266883716, -0.06400000303983688, 1.008000047877431, -0.17600000835955143, 0.0, 0.0, 0.0, 0.0, 0.0, 1.7151015510254176E9, 0.0, 2024-05-07 12:05:51.025
55.0, -2.935821465216577, -253.94855674123392, 131.0105653977953, -66.10086176684126, -0.06400000303983688, 1.008000047877431, -0.17600000835955143, 0.0, 0.0, 0.0, 0.0, 0.0, 1.715101551025426E9, 0.0, 2024-05-07 12:05:51.025
56.0, 39.81123502831906, -250.4293108829297, 102.8827778310515, -47.438760987948626, -0.06400000303983688, 1.008000047877431, -0.17600000835955143, 0.0, 0.0, 0.0, 0.0, 0.0, 1.7151015510261047E9, 0.0, 2024-05-07 12:05:51.026
56.0, -104.89297405723482, -391.04206941695884, 30.310019190888852, -161.78246223321185, -0.06400000303983688, 1.008000047877431, -0.17600000835955143, 0.0, 0.0, 0.0, 0.0, 0.0, 1.7151015510261135E9, 0.0, 2024-05-07 12:05:51.026
57.0, -71.83225844893605, -327.26181557262316, 39.31943818414584, -146.3104961165227, -0.06400000303983688, 1.008000047877431, -0.17600000835955143, 0.0, 0.0, 0.0, 0.0, 0.0, 1.7151015510273068E9, 0.0, 2024-05-07 12:05:51.027
57.0, 69.9585685711354, -205.98807970946655, 192.9657480637543, -24.116744864266366, -0.06400000303983688, 1.008000047877431, -0.17600000835955143, 0.0, 0.0, 0.0, 0.0, 0.0, 1.7151015510273185E9, 0.0, 2024-05-07 12:05:51.027
64.0, 240.0791377555579, -59.110988749656826, 285.9022619626485, 124.99680626904592, -0.06400000303983688, 1.008000047877431, -0.17600000835955143, 0.0, 0.0, 0.0, 0.0, 0.0, 1.715101551083141E9, 0.0, 2024-05-07 12:05:51.083
64.0, 155.86407055333257, -141.4972448735498, 263.0402535335161, 41.32028466043994, -0.06400000303983688, 1.008000047877431, -0.17600000835955143, 0.0, 0.0, 0.0, 0.0, 0.0, 1.715101551083166E9, 0.0, 2024-05-07 12:05:51.083
65.0, 63.50724114757031, -223.8274024981074, 156.26236989861354, -41.043532063718885, -0.06400000303983688, 1.008000047877431, -0.17600000835955143, 0.0, 0.0, 0.0, 0.0, 0.0, 1.7151015510836048E9, 0.0, 2024-05-07 12:05:51.083
65.0, 193.69689850509167, -119.91054232930765, 296.84894913295284, 52.82421692414209, -0.06400000303983688, 1.008000047877431, -0.17600000835955143, 0.0, 0.0, 0.0, 0.0, 0.0, 1.7151015510836165E9, 0.0, 2024-05-07 12:05:51.083
66.0, 216.09141943976283, -93.14407834643498, 266.7016155901365, 80.60793369496241, -0.06400000303983688, 1.008000047877431, -0.17600000835955143, 0.0, 0.0, 0.0, 0.0, 0.0, 1.7151015510842052E9, 0.0, 2024-05-07 12:05:51.084
66.0, 72.58023844007403, -235.14433976402506, 202.3379373527132, -22.018660989124328, -0.06400000303983688, 1.008000047877431, -0.17600000835955143, 0.0, 0.0, 0.0, 0.0, 0.0, 1.715101551084216E9, 0.0, 2024-05-07 12:05:51.084
67.0, 125.67559811100364, -185.5869254511781, 200.21741407783702, 2.61606001900509, -0.06400000303983688, 1.008000047877431, -0.17600000835955143, 0.0, 0.0, 0.0, 0.0, 0.0, 1.715101551084973E9, 0.0, 2024-05-07 12:05:51.084
67.0, 253.9317271914333, -72.36893409257755, 361.23880667006597, 115.40022298274562, -0.06400000303983688, 1.008000047877431, -0.17600000835955143, 0.0, 0.0, 0.0, 0.0, 0.0, 1.7151015510849843E9, 0.0, 2024-05-07 12:05:51.084
68.0, 116.04535572510213, -219.22732555260882, 195.06009203894064, -14.112512482795864, -0.06400000303983688, 1.008000047877431, -0.17600000835955143, 0.0, 0.0, 0.0, 0.0, 0.0, 1.7151015510856862E9, 0.0, 2024-05-07 12:05:51.085
68.0, 76.82876478973776, -244.7970215496607, 207.24094619462267, -36.55939201684669, -0.06400000303983688, 1.008000047877431, -0.17600000835955143, 0.0, 0.0, 0.0, 0.0, 0.0, 1.7151015510857084E9, 0.0, 2024-05-07 12:05:51.085
69.0, 235.66231590788811, -92.18292405782267, 308.7680102917366, 112.98424761136994, -0.06400000303983688, 1.008000047877431, -0.17600000835955143, 0.0, 0.0, 0.0, 0.0, 0.0, 1.7151015510862925E9, 0.0, 2024-05-07 12:05:51.086
69.0, 162.0349054802209, -172.89370500156656, 292.203993387986, 39.67846857989207, -0.06400000303983688, 1.008000047877431, -0.17600000835955143, 0.0, 0.0, 0.0, 0.0, 0.0, 1.7151015510863056E9, 0.0, 2024-05-07 12:05:51.086
70.0, 65.30613302625716, -268.395790270064, 152.70946494070813, -45.55011151032522, -0.06400000303983688, 1.008000047877431, -0.19200000911951065, 0.0, 0.0, 0.0, 0.0, 0.0, 1.7151015511430564E9, 0.0, 2024-05-07 12:05:51.143
70.0, 186.03758339583874, -126.98643304547295, 317.0144896940328, 59.36904184659943, -0.06400000303983688, 1.008000047877431, -0.19200000911951065, 0.0, 0.0, 0.0, 0.0, 0.0, 1.7151015511430717E9, 0.0, 2024-05-07 12:05:51.143
71.0, 214.61415895726532, -116.77276626648381, 303.47605185443535, 96.42023070761934, -0.06400000303983688, 1.0240000486373901, -0.19200000911951065, 0.0, 0.0, 0.0, 0.0, 0.0, 1.715101551143453E9, 0.0, 2024-05-07 12:05:51.143
71.0, 76.60437079239637, -248.7687953026034, 214.61602890724316, -19.239915322046727, -0.06400000303983688, 1.0240000486373901, -0.19200000911951065, 0.0, 0.0, 0.0, 0.0, 0.0, 1.7151015511434646E9, 0.0, 2024-05-07 12:05:51.143
72.0, 124.46013062540442, -200.98783346870914, 201.03271226817742, 8.057614454533905, -0.06400000303983688, 1.0240000486373901, -0.19200000911951065, 0.0, 0.0, 0.0, 0.0, 0.0, 1.7151015511441388E9, 0.0, 2024-05-07 12:05:51.144
72.0, 244.15936860721558, -89.83052698569372, 367.570457295049, 119.60013063298538, -0.06400000303983688, 1.0240000486373901, -0.19200000911951065, 0.0, 0.0, 0.0, 0.0, 0.0, 1.7151015511441517E9, 0.0, 2024-05-07 12:05:51.144
