%OpenBCI Raw EXG Data
%Number of channels = 4
%Sample Rate = 200 Hz
%Board = OpenBCI_GUI$BoardGanglionBLE
Sample Index, EXG Channel 0, EXG Channel 1, EXG Channel 2, EXG Channel 3, Accel Channel 0, Accel Channel 1, Accel Channel 2, Other, Other, Other, Other, Other, Timestamp, Other, Timestamp (Formatted)
0.0, -530.0485409200191, -546.5022307750769, -5.6154597834683955, -320.72634040005505, 0.0, 0.0, 0.0, 0.0, 0.0, 0.0, 0.0, 0.0, 1.7151025617001824E9, 0.0, 2024-05-07 12:22:41.700
1.0, -535.8079868517816, -555.0441622738726, -14.980169272515923, -331.4897724725306, 0.0, 1.008000047877431, 0.0, 0.0, 0.0, 0.0, 0.0, 0.0, 1.7151025617136304E9, 0.0, 2024-05-07 12:22:41.713
1.0, -535.3591988570988, -558.4998298329301, -13.143878394272178, -324.46250045578927, 0.0, 1.008000047877431, 0.0, 0.0, 0.0, 0.0, 0.0, 0.0, 1.7151025617136304E9, 0.0, 2024-05-07 12:22:41.713
2.0, -524.8762592813, -547.1417536674999, 3.1620854125358164, -310.4827544214204, 0.0800000037997961, 1.008000047877431, 0.0, 0.0, 0.0, 0.0, 0.0, 0.0, 1.7151025617466109E9, 0.0, 2024-05-07 12:22:41.746
2.0, -516.6335197789595, -553.3238082942553, 3.094767213333398, -313.6018309844658, 0.0800000037997961, 1.008000047877431, 0.0, 0.0, 0.0, 0.0, 0.0, 0.0, 1.7151025617466109E9, 0.0, 2024-05-07 12:22:41.746
3.0, -532.3373596929014, -559.0159360268153, -3.139646012801677, -319.46225421503186, 0.0800000037997961, 1.008000047877431, 0.0, 0.0, 0.0, 0.0, 0.0, 0.0, 1.7151025617473211E9, 0.0, 2024-05-07 12:22:41.747
3.0, -514.2699030069634, -553.8885331875645, 11.588080012705177, -313.90476288087666, 0.0800000037997961, 1.008000047877431, 0.0, 0.0, 0.0, 0.0, 0.0, 0.0, 1.7151025617473211E9, 0.0, 2024-05-07 12:22:41.747
4.0, -506.8985601942986, -557.0861476496793, 17.09321274748072, -312.02359320316464, 0.0800000037997961, 1.008000047877431, 0.0, 0.0, 0.0, 0.0, 0.0, 0.0, 1.7151025617481596E9, 0.0, 2024-05-07 12:22:41.748
4.0, -521.547748320736, -564.109679766465, 8.734536346513778, -326.65034192986786, 0.0800000037997961, 1.008000047877431, 0.0, 0.0, 0.0, 0.0, 0.0, 0.0, 1.7151025617481596E9, 0.0, 2024-05-07 12:22:41.748
5.0, -508.4319191761315, -556.3606070582755, 22.33655248535797, -315.7036547595635, 0.0800000037997961, 1.008000047877431, 0.0, 0.0, 0.0, 0.0, 0.0, 0.0, 1.7151025617591057E9, 0.0, 2024-05-07 12:22:41.759
5.0, -507.7512573841959, -543.5776290097274, 23.5108810714446, -306.4324427694082, 0.0800000037997961, 1.008000047877431, 0.0, 0.0, 0.0, 0.0, 0.0, 0.0, 1.7151025617591057E9, 0.0, 2024-05-07 12:22:41.759
6.0, -510.6945586493239, -557.9874635390006, 19.632604817394167, -317.8279179343954, 0.0800000037997961, 1.008000047877431, 0.0, 0.0, 0.0, 0.0, 0.0, 0.0, 1.7151025617598004E9, 0.0, 2024-05-07 12:22:41.759
6.0, -499.0896490868181, -544.7182984962128, 41.12580986274406, -310.0713654262945, 0.0800000037997961, 1.008000047877431, 0.0, 0.0, 0.0, 0.0, 0.0, 0.0, 1.7151025617598004E9, 0.0, 2024-05-07 12:22:41.759
7.0, -486.9686333304271, -547.0744354682975, 32.25850706780329, -313.80378558207303, 0.0800000037997961, 1.008000047877431, 0.0, 0.0, 0.0, 0.0, 0.0, 0.0, 1.7151025617735126E9, 0.0, 2024-05-07 12:22:41.773
7.0, -482.25261948630214, -550.1336736320518, 45.81564440717921, -312.3414846993983, 0.0800000037997961, 1.008000047877431, 0.0, 0.0, 0.0, 0.0, 0.0, 0.0, 1.7151025617735126E9, 0.0, 2024-05-07 12:22:41.773
8.0, -484.642415557988, -550.5749818268232, 40.08611767506227, -316.72090754751116, 0.0800000037997961, 1.008000047877431, 0.0, 0.0, 0.0, 0.0, 0.0, 0.0, 1.7151025617891202E9, 0.0, 2024-05-07 12:22:41.789
8.0, -474.83639787416905, -544.9913111929782, 53.83772981213406, -303.2497879071161, 0.0800000037997961, 1.008000047877431, 0.0, 0.0, 0.0, 0.0, 0.0, 0.0, 1.7151025617891202E9, 0.0, 2024-05-07 12:22:41.789
9.0, -460.400384045206, -562.8605531812645, 58.6771603547968, -302.61026501469314, 0.0800000037997961, 1.008000047877431, 0.0, 0.0, 0.0, 0.0, 0.0, 0.0, 1.7151025617898097E9, 0.0, 2024-05-07 12:22:41.789
9.0, -481.9347279900685, -554.1278867847286, 46.679561296943575, -312.06099220272154, 0.0800000037997961, 1.008000047877431, 0.0, 0.0, 0.0, 0.0, 0.0, 0.0, 1.7151025617898097E9, 0.0, 2024-05-07 12:22:41.789
10.0, -475.53949906583875, -561.3458936992101, 51.526471639517695, -306.9597686631605, 0.0800000037997961, 1.008000047877431, 0.20800000987946987, 0.0, 0.0, 0.0, 0.0, 0.0, 1.715102561803461E9, 0.0, 2024-05-07 12:22:41.803
10.0, -501.8309957543388, -577.689256505575, 40.31425157235935, -311.90765630453825, 0.0800000037997961, 1.008000047877431, 0.20800000987946987, 0.0, 0.0, 0.0, 0.0, 0.0, 1.715102561803461E9, 0.0, 2024-05-07 12:22:41.803
11.0, -518.7839622534811, -579.5666862833314, 23.009734477382153, -320.7375600999221, 0.0800000037997961, 1.008000047877431, 0.20800000987946987, 0.0, 0.0, 0.0, 0.0, 0.0, 1.7151025618189456E9, 0.0, 2024-05-07 12:22:41.818
11.0, -528.8517729341984, -572.0307878726162, 15.313020368572325, -322.42425497993827, 0.0800000037997961, 1.008000047877431, 0.20800000987946987, 0.0, 0.0, 0.0, 0.0, 0.0, 1.7151025618189456E9, 0.0, 2024-05-07 12:22:41.818
12.0, -513.4733043164015, -582.6633234466426, 22.441269684117287, -321.73237348813564, 0.04800000227987766, 1.008000047877431, 0.20800000987946987, 0.0, 0.0, 0.0, 0.0, 0.0, 1.715102561834191E9, 0.0, 2024-05-07 12:22:41.834
12.0, -526.480676362291, -589.8140121619217, 15.814166962634772, -324.13712915964425, 0.04800000227987766, 1.008000047877431, 0.20800000987946987, 0.0, 0.0, 0.0, 0.0, 0.0, 1.715102561834191E9, 0.0, 2024-05-07 12:22:41.834
13.0, -539.7872404046357, -597.8024384672754, 7.418091562110931, -327.2936047222465, 0.04800000227987766, 1.008000047877431, 0.20800000987946987, 0.0, 0.0, 0.0, 0.0, 0.0, 1.7151025618348627E9, 0.0, 2024-05-07 12:22:41.834
13.0, -540.4566824967042, -589.5522191650234, 10.410011526662856, -316.4142357511446, 0.04800000227987766, 1.008000047877431, 0.20800000987946987, 0.0, 0.0, 0.0, 0.0, 0.0, 1.7151025618348627E9, 0.0, 2024-05-07 12:22:41.834
14.0, -550.4347355784848, -607.1334888567217, 4.377552898135036, -321.80717148724943, 0.04800000227987766, 1.008000047877431, 0.20800000987946987, 0.0, 0.0, 0.0, 0.0, 0.0, 1.7151025618490489E9, 0.0, 2024-05-07 12:22:41.849
14.0, -573.7193527026102, -603.6591217978857, -15.619692164938897, -338.28517069201916, 0.04800000227987766, 1.008000047877431, 0.20800000987946987, 0.0, 0.0, 0.0, 0.0, 0.0, 1.7151025618490489E9, 0.0, 2024-05-07 12:22:41.849
15.0, -562.3051780378446, -598.6214765575714, -11.715236611198634, -324.5971368541941, 0.04800000227987766, 1.008000047877431, 0.20800000987946987, 0.0, 0.0, 0.0, 0.0, 0.0, 1.7151025618498373E9, 0.0, 2024-05-07 12:22:41.849
15.0, -573.853989101015, -598.9730271534063, -12.036868007387966, -322.79450507555157, 0.04800000227987766, 1.008000047877431, 0.20800000987946987, 0.0, 0.0, 0.0, 0.0, 0.0, 1.7151025618498373E9, 0.0, 2024-05-07 12:22:41.849
16.0, -592.0523422854021, -591.0332195474766, -15.90018466161564, -327.1178294243291, 0.04800000227987766, 1.008000047877431, 0.20800000987946987, 0.0, 0.0, 0.0, 0.0, 0.0, 1.7151025618636782E9, 0.0, 2024-05-07 12:22:41.863
16.0, -610.8490794626996, -592.3085254323669, -23.379984572995454, -330.0798301892355, 0.04800000227987766, 1.008000047877431, 0.20800000987946987, 0.0, 0.0, 0.0, 0.0, 0.0, 1.7151025618636782E9, 0.0, 2024-05-07 12:22:41.863
17.0, -615.8568055033684, -603.7451394968666, -25.384570949245244, -325.8948821388185, 0.04800000227987766, 1.008000047877431, 0.20800000987946987, 0.0, 0.0, 0.0, 0.0, 0.0, 1.7151025618791296E9, 0.0, 2024-05-07 12:22:41.879
17.0, -619.98565505445, -589.4325423664413, -29.54707959992811, -318.4076024275273, 0.04800000227987766, 1.008000047877431, 0.20800000987946987, 0.0, 0.0, 0.0, 0.0, 0.0, 1.7151025618791296E9, 0.0, 2024-05-07 12:22:41.879
18.0, -634.5151663823053, -588.4040698786266, -29.363824502099305, -324.8963288506493, 0.04800000227987766, 1.008000047877431, 0.20800000987946987, 0.0, 0.0, 0.0, 0.0, 0.0, 1.715102561879874E9, 0.0, 2024-05-07 12:22:41.879
18.0, -626.4669016776606, -583.5010610367171, -17.792574039194733, -308.4407690456137, 0.04800000227987766, 1.008000047877431, 0.20800000987946987, 0.0, 0.0, 0.0, 0.0, 0.0, 1.715102561879874E9, 0.0, 2024-05-07 12:22:41.879
19.0, -632.4357820069417, -577.9697490022518, -25.421969948802143, -310.0751053262502, 0.04800000227987766, 1.008000047877431, 0.20800000987946987, 0.0, 0.0, 0.0, 0.0, 0.0, 1.715102561893684E9, 0.0, 2024-05-07 12:22:41.893
19.0, -640.9851933056489, -575.060106836725, -36.47337431786582, -319.1855016183108, 0.04800000227987766, 1.008000047877431, 0.20800000987946987, 0.0, 0.0, 0.0, 0.0, 0.0, 1.715102561893684E9, 0.0, 2024-05-07 12:22:41.893
20.0, -624.4473557015881, -563.2083638771437, -24.644070758018643, -308.0779987499118, 0.04800000227987766, 1.008000047877431, 0.2400000113993883, 0.0, 0.0, 0.0, 0.0, 0.0, 1.7151025619091055E9, 0.0, 2024-05-07 12:22:41.909
20.0, -613.6502645295113, -566.4396374388598, -33.93772214790806, -313.212881389074, 0.04800000227987766, 1.008000047877431, 0.2400000113993883, 0.0, 0.0, 0.0, 0.0, 0.0, 1.7151025619091055E9, 0.0, 2024-05-07 12:22:41.909
21.0, -626.2051086807624, -569.0052088084631, -47.117129591759294, -328.6474485062063, 0.04800000227987766, 1.008000047877431, 0.2400000113993883, 0.0, 0.0, 0.0, 0.0, 0.0, 1.715102561909832E9, 0.0, 2024-05-07 12:22:41.909
21.0, -621.2796604391187, -568.3619460160844, -40.53490566974506, -329.10745620075613, 0.04800000227987766, 1.008000047877431, 0.2400000113993883, 0.0, 0.0, 0.0, 0.0, 0.0, 1.715102561909832E9, 0.0, 2024-05-07 12:22:41.909
22.0, -620.2437081513926, -563.5374750732444, -37.9992534997873, -316.6685489481315, 0.144000006839633, 1.008000047877431, 0.2400000113993883, 0.0, 0.0, 0.0, 0.0, 0.0, 1.7151025619234085E9, 0.0, 2024-05-07 12:22:41.923
22.0, -613.8222999274731, -566.8772057336755, -41.17816846212372, -317.54742543771863, 0.144000006839633, 1.008000047877431, 0.2400000113993883, 0.0, 0.0, 0.0, 0.0, 0.0, 1.7151025619234085E9, 0.0, 2024-05-07 12:22:41.923
23.0, -616.6534041939303, -570.0636004959233, -49.2638321663253, -335.21471282839775, 0.144000006839633, 1.008000047877431, 0.2400000113993883, 0.0, 0.0, 0.0, 0.0, 0.0, 1.7151025619391046E9, 0.0, 2024-05-07 12:22:41.939
23.0, -610.639645065181, -569.9626231971197, -41.077191163320094, -333.2400456517935, 0.144000006839633, 1.008000047877431, 0.2400000113993883, 0.0, 0.0, 0.0, 0.0, 0.0, 1.7151025619391046E9, 0.0, 2024-05-07 12:22:41.939
24.0, -609.951503473334, -571.3912649801932, -44.34212382463738, -331.8899417677894, 0.144000006839633, 1.008000047877431, 0.2400000113993883, 0.0, 0.0, 0.0, 0.0, 0.0, 1.7151025619397771E9, 0.0, 2024-05-07 12:22:41.939
24.0, -609.7794680753723, -581.0850856653415, -53.72927271341905, -344.908533513546, 0.144000006839633, 1.008000047877431, 0.2400000113993883, 0.0, 0.0, 0.0, 0.0, 0.0, 1.7151025619397771E9, 0.0, 2024-05-07 12:22:41.939
25.0, -606.7389294113964, -573.0256012608297, -37.28867250820622, -330.6669944822788, 0.144000006839633, 1.008000047877431, 0.2400000113993883, 0.0, 0.0, 0.0, 0.0, 0.0, 1.715102561953366E9, 0.0, 2024-05-07 12:22:41.953
25.0, -595.1115804491565, -561.7722422941588, -44.02797222835943, -323.9987528612837, 0.144000006839633, 1.008000047877431, 0.2400000113993883, 0.0, 0.0, 0.0, 0.0, 0.0, 1.715102561953366E9, 0.0, 2024-05-07 12:22:41.953
26.0, -607.3447932042181, -569.899044897873, -47.58835698617622, -335.899114520289, 0.144000006839633, 1.008000047877431, 0.2400000113993883, 0.0, 0.0, 0.0, 0.0, 0.0, 1.7151025619694896E9, 0.0, 2024-05-07 12:22:41.969
26.0, -594.875966751948, -557.9313650396653, -39.798145378474146, -325.8612230392173, 0.144000006839633, 1.008000047877431, 0.2400000113993883, 0.0, 0.0, 0.0, 0.0, 0.0, 1.7151025619694896E9, 0.0, 2024-05-07 12:22:41.969
27.0, -582.8671479942277, -557.030049150344, -39.30821848427877, -324.13712915964425, 0.144000006839633, 1.008000047877431, 0.2400000113993883, 0.0, 0.0, 0.0, 0.0, 0.0, 1.7151025619699612E9, 0.0, 2024-05-07 12:22:41.969
27.0, -574.0858628982678, -563.6234927722253, -38.208687897305936, -327.0729506248608, 0.144000006839633, 1.008000047877431, 0.2400000113993883, 0.0, 0.0, 0.0, 0.0, 0.0, 1.7151025619699612E9, 0.0, 2024-05-07 12:22:41.969
28.0, -574.4561129938811, -573.8857782506384, -39.435375082772225, -339.4594992781058, 0.144000006839633, 1.008000047877431, 0.2400000113993883, 0.0, 0.0, 0.0, 0.0, 0.0, 1.7151025619835093E9, 0.0, 2024-05-07 12:22:41.983
28.0, -569.6166824512184, -567.172657830175, -34.8128587375395, -323.7519194642082, 0.144000006839633, 1.008000047877431, 0.2400000113993883, 0.0, 0.0, 0.0, 0.0, 0.0, 1.7151025619835093E9, 0.0, 2024-05-07 12:22:41.983
29.0, -562.6006301343441, -571.6006993777119, -35.411242730449885, -322.13628268335015, 0.144000006839633, 1.008000047877431, 0.2400000113993883, 0.0, 0.0, 0.0, 0.0, 0.0, 1.7151025619991083E9, 0.0, 2024-05-07 12:22:41.999
29.0, -572.6572211151943, -569.9364438974299, -36.56313191680238, -341.14619415812194, 0.144000006839633, 1.008000047877431, 0.2400000113993883, 0.0, 0.0, 0.0, 0.0, 0.0, 1.7151025619991083E9, 0.0, 2024-05-07 12:22:41.999
30.0, -552.7347740512341, -563.2682022764347, -31.60028467560187, -326.6017232304439, 0.144000006839633, 1.008000047877431, 0.20800000987946987, 0.0, 0.0, 0.0, 0.0, 0.0, 1.7151025619998417E9, 0.0, 2024-05-07 12:22:41.999
30.0, -547.947702107951, -565.2241699532606, -34.50244704121724, -327.4955593198538, 0.144000006839633, 1.008000047877431, 0.20800000987946987, 0.0, 0.0, 0.0, 0.0, 0.0, 1.7151025619998417E9, 0.0, 2024-05-07 12:22:41.999
31.0, -550.7189679751173, -573.5342276548035, -42.7414466436021, -337.7615846982226, 0.144000006839633, 0.9600000455975533, 0.20800000987946987, 0.0, 0.0, 0.0, 0.0, 0.0, 1.7151025620136216E9, 0.0, 2024-05-07 12:22:42.013
31.0, -547.6933889109641, -564.169518165756, -38.642516292165965, -331.231719375588, 0.144000006839633, 0.9600000455975533, 0.20800000987946987, 0.0, 0.0, 0.0, 0.0, 0.0, 1.7151025620136216E9, 0.0, 2024-05-07 12:22:42.013
32.0, -536.731742140837, -565.6505185482092, -29.61065789917484, -320.9619540972635, 0.11200000531971455, 0.9600000455975533, 0.20800000987946987, 0.0, 0.0, 0.0, 0.0, 0.0, 1.715102562029324E9, 0.0, 2024-05-07 12:22:42.029
32.0, -537.1206917362288, -568.4292642152868, -27.845425120089203, -325.8874023389071, 0.11200000531971455, 0.9600000455975533, 0.20800000987946987, 0.0, 0.0, 0.0, 0.0, 0.0, 1.715102562029324E9, 0.0, 2024-05-07 12:22:42.029
33.0, -546.2759668277577, -571.6605377770029, -33.032666358631104, -335.0464173303917, 0.11200000531971455, 0.9600000455975533, 0.20800000987946987, 0.0, 0.0, 0.0, 0.0, 0.0, 1.7151025620299375E9, 0.0, 2024-05-07 12:22:42.029
33.0, -540.3070864984766, -572.696490064729, -15.840346262324601, -324.2942049577832, 0.11200000531971455, 0.9600000455975533, 0.20800000987946987, 0.0, 0.0, 0.0, 0.0, 0.0, 1.7151025620299375E9, 0.0, 2024-05-07 12:22:42.029
34.0, -542.3490718742833, -576.3241930217482, -20.38432470848784, -328.4529737085104, 0.11200000531971455, 0.9600000455975533, 0.20800000987946987, 0.0, 0.0, 0.0, 0.0, 0.0, 1.715102562043511E9, 0.0, 2024-05-07 12:22:42.043
34.0, -557.53680559434, -580.5016612722538, -28.76918040914461, -340.28601716831326, 0.11200000531971455, 0.9600000455975533, 0.20800000987946987, 0.0, 0.0, 0.0, 0.0, 0.0, 1.715102562043511E9, 0.0, 2024-05-07 12:22:42.043
35.0, -544.4209764497355, -574.0465939487331, -20.545140406582505, -327.76857201661915, 0.11200000531971455, 0.9600000455975533, 0.20800000987946987, 0.0, 0.0, 0.0, 0.0, 0.0, 1.7151025620592E9, 0.0, 2024-05-07 12:22:42.059
35.0, -541.9002838796005, -573.347232657019, -25.18261635163799, -323.826717463322, 0.11200000531971455, 0.9600000455975533, 0.20800000987946987, 0.0, 0.0, 0.0, 0.0, 0.0, 1.7151025620592E9, 0.0, 2024-05-07 12:22:42.059
36.0, -547.9776213075966, -569.8466862984933, -27.351758325938135, -330.532358083874, 0.11200000531971455, 0.9600000455975533, 0.20800000987946987, 0.0, 0.0, 0.0, 0.0, 0.0, 1.7151025620598915E9, 0.0, 2024-05-07 12:22:42.059
36.0, -533.511688278988, -556.1586524606682, -22.32907268544659, -324.79909145180136, 0.11200000531971455, 0.9600000455975533, 0.20800000987946987, 0.0, 0.0, 0.0, 0.0, 0.0, 1.7151025620598915E9, 0.0, 2024-05-07 12:22:42.059
37.0, -529.1060861311853, -561.5141891972162, -13.214936493430287, -315.13145006634295, 0.11200000531971455, 0.9600000455975533, 0.20800000987946987, 0.0, 0.0, 0.0, 0.0, 0.0, 1.7151025620735817E9, 0.0, 2024-05-07 12:22:42.073
37.0, -539.7386217052117, -566.5518344375305, -8.113712953869253, -314.1478563779965, 0.11200000531971455, 0.9600000455975533, 0.20800000987946987, 0.0, 0.0, 0.0, 0.0, 0.0, 1.7151025620735817E9, 0.0, 2024-05-07 12:22:42.073
38.0, -539.5628464072943, -567.0866401311941, -18.24510193383321, -330.3453630860895, 0.11200000531971455, 0.9600000455975533, 0.20800000987946987, 0.0, 0.0, 0.0, 0.0, 0.0, 1.7151025620894003E9, 0.0, 2024-05-07 12:22:42.089
38.0, -523.0362285031006, -571.3613457805477, -4.6131665953435, -317.6783219361678, 0.11200000531971455, 0.9600000455975533, 0.20800000987946987, 0.0, 0.0, 0.0, 0.0, 0.0, 1.7151025620894003E9, 0.0, 2024-05-07 12:22:42.089
39.0, -537.0084947375581, -566.6528117363341, -9.261862240266055, -322.4766135793179, 0.11200000531971455, 0.9600000455975533, 0.20800000987946987, 0.0, 0.0, 0.0, 0.0, 0.0, 1.7151025620899014E9, 0.0, 2024-05-07 12:22:42.089
39.0, -541.0625462895259, -572.853565862868, -13.45802999055013, -332.05823726579547, 0.11200000531971455, 0.9600000455975533, 0.20800000987946987, 0.0, 0.0, 0.0, 0.0, 0.0, 1.7151025620899014E9, 0.0, 2024-05-07 12:22:42.089
40.0, -521.7459630183876, -561.009302703198, -12.25004230486229, -317.9737740326673, 0.11200000531971455, 0.9600000455975533, 0.25600001215934753, 0.0, 0.0, 0.0, 0.0, 0.0, 1.7151025621033626E9, 0.0, 2024-05-07 12:22:42.103
40.0, -524.9921961799264, -565.2092103534378, -6.206363976467401, -314.30867207609117, 0.11200000531971455, 0.9600000455975533, 0.25600001215934753, 0.0, 0.0, 0.0, 0.0, 0.0, 1.7151025621033626E9, 0.0, 2024-05-07 12:22:42.103
41.0, -529.6483716247603, -567.3596528279595, -14.71463637566194, -326.68774092942476, 0.11200000531971455, 0.9920000471174717, 0.25600001215934753, 0.0, 0.0, 0.0, 0.0, 0.0, 1.7151025621191251E9, 0.0, 2024-05-07 12:22:42.119
41.0, -528.1337121427059, -565.8973519452848, -16.30783375678584, -326.57554393075407, 0.11200000531971455, 0.9920000471174717, 0.25600001215934753, 0.0, 0.0, 0.0, 0.0, 0.0, 1.7151025621191251E9, 0.0, 2024-05-07 12:22:42.119
42.0, -526.7611688589677, -562.0489948908798, -3.5622547077946365, -311.24569401238114, 0.11200000531971455, 0.9920000471174717, 0.25600001215934753, 0.0, 0.0, 0.0, 0.0, 0.0, 1.7151025621199186E9, 0.0, 2024-05-07 12:22:42.119
42.0, -522.5313420090824, -568.451703615021, -2.62353981891647, -307.580592055805, 0.11200000531971455, 0.9920000471174717, 0.25600001215934753, 0.0, 0.0, 0.0, 0.0, 0.0, 1.7151025621199186E9, 0.0, 2024-05-07 12:22:42.119
43.0, -530.1719576185569, -572.3748586685397, -9.284301640000194, -323.32557086925954, 0.11200000531971455, 0.9920000471174717, 0.25600001215934753, 0.0, 0.0, 0.0, 0.0, 0.0, 1.715102562133417E9, 0.0, 2024-05-07 12:22:42.133
43.0, -521.2036775248125, -565.833773646038, 8.525101948995143, -311.657083007507, 0.11200000531971455, 0.9920000471174717, 0.25600001215934753, 0.0, 0.0, 0.0, 0.0, 0.0, 1.715102562133417E9, 0.0, 2024-05-07 12:22:42.133
44.0, -513.5929811149836, -564.5846470608376, 0.8957060393877327, -315.8121118582785, 0.11200000531971455, 0.9920000471174717, 0.25600001215934753, 0.0, 0.0, 0.0, 0.0, 0.0, 1.715102562149115E9, 0.0, 2024-05-07 12:22:42.149
44.0, -540.6436774944887, -578.8523653917946, -17.54948054207489, -335.92155392002314, 0.11200000531971455, 0.9920000471174717, 0.25600001215934753, 0.0, 0.0, 0.0, 0.0, 0.0, 1.715102562149115E9, 0.0, 2024-05-07 12:22:42.149
45.0, -530.9535967092961, -571.731595876161, 3.509896108414978, -326.57554393075407, 0.11200000531971455, 0.9920000471174717, 0.25600001215934753, 0.0, 0.0, 0.0, 0.0, 0.0, 1.7151025621498904E9, 0.0, 2024-05-07 12:22:42.149
45.0, -525.7027771715075, -571.5819998779334, 1.80824162857607, -326.8859556270763, 0.11200000531971455, 0.9920000471174717, 0.25600001215934753, 0.0, 0.0, 0.0, 0.0, 0.0, 1.7151025621498904E9, 0.0, 2024-05-07 12:22:42.149
46.0, -532.7450087880716, -576.2119960230775, -4.104540201369673, -333.0081718545407, 0.11200000531971455, 0.9920000471174717, 0.25600001215934753, 0.0, 0.0, 0.0, 0.0, 0.0, 1.715102562163592E9, 0.0, 2024-05-07 12:22:42.163
46.0, -534.259668270126, -568.5152819142677, -9.620892636012286, -326.1529352357611, 0.11200000531971455, 0.9920000471174717, 0.25600001215934753, 0.0, 0.0, 0.0, 0.0, 0.0, 1.715102562163592E9, 0.0, 2024-05-07 12:22:42.163
47.0, -538.6465709181502, -569.2258629058488, -3.6370527069084346, -318.6693954244256, 0.11200000531971455, 0.9920000471174717, 0.25600001215934753, 0.0, 0.0, 0.0, 0.0, 0.0, 1.715102562179408E9, 0.0, 2024-05-07 12:22:42.179
47.0, -533.2573750820011, -570.3515727925114, -1.288395534735173, -319.02094602026045, 0.11200000531971455, 0.9920000471174717, 0.25600001215934753, 0.0, 0.0, 0.0, 0.0, 0.0, 1.715102562179408E9, 0.0, 2024-05-07 12:22:42.179
48.0, -540.2921268986538, -562.0676943906583, -7.006702566985041, -325.274058746174, 0.11200000531971455, 0.9920000471174717, 0.25600001215934753, 0.0, 0.0, 0.0, 0.0, 0.0, 1.7151025621799629E9, 0.0, 2024-05-07 12:22:42.179
48.0, -537.7041161293164, -560.9831234035082, -4.411211997736245, -311.72066130675375, 0.11200000531971455, 0.9920000471174717, 0.25600001215934753, 0.0, 0.0, 0.0, 0.0, 0.0, 1.7151025621799629E9, 0.0, 2024-05-07 12:22:42.179
49.0, -526.1702646659687, -562.4342045863159, -4.934797991532832, -308.94939543958753, 0.11200000531971455, 0.9920000471174717, 0.25600001215934753, 0.0, 0.0, 0.0, 0.0, 0.0, 1.7151025621935873E9, 0.0, 2024-05-07 12:22:42.193
49.0, -545.0829387418926, -565.7552357469685, -10.309034227859229, -327.68629421759397, 0.11200000531971455, 0.9920000471174717, 0.25600001215934753, 0.0, 0.0, 0.0, 0.0, 0.0, 1.7151025621935873E9, 0.0, 2024-05-07 12:22:42.193
50.0, -537.0795528367162, -566.84728653403, -5.189111188519746, -320.823577798903, 0.11200000531971455, 0.9920000471174717, 0.25600001215934753, 0.0, 0.0, 0.0, 0.0, 0.0, 1.7151025622096083E9, 0.0, 2024-05-07 12:22:42.209
50.0, -522.2396298125386, -565.9571903445758, -1.6773451301269233, -317.4801072385162, 0.11200000531971455, 0.9920000471174717, 0.25600001215934753, 0.0, 0.0, 0.0, 0.0, 0.0, 1.7151025622096083E9, 0.0, 2024-05-07 12:22:42.209
51.0, -531.1144124073908, -566.4919960382394, -13.143878394272178, -330.8988682795316, 0.11200000531971455, 1.008000047877431, 0.25600001215934753, 0.0, 0.0, 0.0, 0.0, 0.0, 1.715102562209957E9, 0.0, 2024-05-07 12:22:42.209
51.0, -530.6731042126194, -562.4903030856512, -13.712343187537044, -332.3387297624722, 0.11200000531971455, 1.008000047877431, 0.25600001215934753, 0.0, 0.0, 0.0, 0.0, 0.0, 1.715102562209957E9, 0.0, 2024-05-07 12:22:42.209
52.0, -526.3123808642849, -561.9405377921648, -10.574567124713212, -327.4245012206957, 0.12800000607967377, 1.008000047877431, 0.25600001215934753, 0.0, 0.0, 0.0, 0.0, 0.0, 1.7151025622399304E9, 0.0, 2024-05-07 12:22:42.239
52.0, -521.2036775248125, -562.1350125898607, -8.6522585474886, -324.7130737528205, 0.12800000607967377, 1.008000047877431, 0.25600001215934753, 0.0, 0.0, 0.0, 0.0, 0.0, 1.7151025622399304E9, 0.0, 2024-05-07 12:22:42.239
53.0, -531.3201069049537, -560.5979137080722, -14.542600977700204, -339.9344665724784, 0.12800000607967377, 1.008000047877431, 0.25600001215934753, 0.0, 0.0, 0.0, 0.0, 0.0, 1.715102562240439E9, 0.0, 2024-05-07 12:22:42.240
53.0, -524.1507186898962, -561.6862245951779, 3.01248941430822, -328.61378940660506, 0.12800000607967377, 1.008000047877431, 0.25600001215934753, 0.0, 0.0, 0.0, 0.0, 0.0, 1.715102562240439E9, 0.0, 2024-05-07 12:22:42.240
54.0, -523.9225847925991, -557.2694027475081, 2.5973605192266405, -319.24907991755754, 0.12800000607967377, 1.008000047877431, 0.25600001215934753, 0.0, 0.0, 0.0, 0.0, 0.0, 1.7151025622412071E9, 0.0, 2024-05-07 12:22:42.241
54.0, -535.6434312537313, -556.9776905509643, -1.531489031855017, -331.7553053693846, 0.12800000607967377, 1.008000047877431, 0.25600001215934753, 0.0, 0.0, 0.0, 0.0, 0.0, 1.7151025622412071E9, 0.0, 2024-05-07 12:22:42.241
55.0, -525.8935120692477, -559.0346355265938, 2.096213925164193, -317.0500187436119, 0.12800000607967377, 1.008000047877431, 0.25600001215934753, 0.0, 0.0, 0.0, 0.0, 0.0, 1.715102562253771E9, 0.0, 2024-05-07 12:22:42.253
55.0, -527.5128887500614, -559.442284621764, -0.5067564439959824, -313.1941818892956, 0.12800000607967377, 1.008000047877431, 0.25600001215934753, 0.0, 0.0, 0.0, 0.0, 0.0, 1.715102562253771E9, 0.0, 2024-05-07 12:22:42.253
56.0, -541.6758898822591, -561.2037775008939, -13.663724488113075, -330.7193530816585, 0.12800000607967377, 1.008000047877431, 0.25600001215934753, 0.0, 0.0, 0.0, 0.0, 0.0, 1.7151025622693493E9, 0.0, 2024-05-07 12:22:42.269
56.0, -543.979668254964, -578.063246501144, -12.025648307520896, -333.0119117544964, 0.12800000607967377, 1.008000047877431, 0.25600001215934753, 0.0, 0.0, 0.0, 0.0, 0.0, 1.7151025622693493E9, 0.0, 2024-05-07 12:22:42.269
57.0, -539.3795913094655, -569.0052088084631, -4.138199300970882, -319.7390068117529, 0.12800000607967377, 1.008000047877431, 0.25600001215934753, 0.0, 0.0, 0.0, 0.0, 0.0, 1.7151025622699192E9, 0.0, 2024-05-07 12:22:42.269
57.0, -543.2990064630285, -568.9528502090834, -7.133859165478498, -323.4976062672213, 0.12800000607967377, 1.008000047877431, 0.25600001215934753, 0.0, 0.0, 0.0, 0.0, 0.0, 1.7151025622699192E9, 0.0, 2024-05-07 12:22:42.269
58.0, -544.0956051535904, -573.1153588597663, -12.732489399146289, -337.24921840429306, 0.12800000607967377, 1.008000047877431, 0.25600001215934753, 0.0, 0.0, 0.0, 0.0, 0.0, 1.7151025622834308E9, 0.0, 2024-05-07 12:22:42.283
58.0, -534.5513804666698, -564.4687101622112, -3.135906112845987, -321.7548128878698, 0.12800000607967377, 1.008000047877431, 0.25600001215934753, 0.0, 0.0, 0.0, 0.0, 0.0, 1.7151025622834308E9, 0.0, 2024-05-07 12:22:42.283
59.0, -526.7349895592779, -562.3930656868033, 4.957237391266972, -323.0039394730702, 0.12800000607967377, 1.008000047877431, 0.25600001215934753, 0.0, 0.0, 0.0, 0.0, 0.0, 1.7151025622991233E9, 0.0, 2024-05-07 12:22:42.299
59.0, -539.0579599132761, -568.3694258159958, -17.250288545619696, -334.6125889355317, 0.12800000607967377, 1.008000047877431, 0.25600001215934753, 0.0, 0.0, 0.0, 0.0, 0.0, 1.7151025622991233E9, 0.0, 2024-05-07 12:22:42.299
60.0, -526.6414920603856, -562.5314419851638, -1.3444940340705216, -317.91019573342055, 0.12800000607967377, 1.008000047877431, 0.25600001215934753, 0.0, 0.0, 0.0, 0.0, 0.0, 1.7151025622998204E9, 0.0, 2024-05-07 12:22:42.299
60.0, -520.8670865288004, -560.3211611113511, -2.702077717985958, -313.24280058871955, 0.12800000607967377, 1.008000047877431, 0.25600001215934753, 0.0, 0.0, 0.0, 0.0, 0.0, 1.7151025622998204E9, 0.0, 2024-05-07 12:22:42.299
61.0, -527.6811842480674, -565.5196220497601, -4.4486109972931445, -325.5283719431609, 0.12800000607967377, 0.9920000471174717, 0.25600001215934753, 0.0, 0.0, 0.0, 0.0, 0.0, 1.7151025623134093E9, 0.0, 2024-05-07 12:22:42.313
61.0, -529.7343893237412, -563.4589371741749, -11.146771817933768, -322.83190407510847, 0.12800000607967377, 0.9920000471174717, 0.25600001215934753, 0.0, 0.0, 0.0, 0.0, 0.0, 1.7151025623134093E9, 0.0, 2024-05-07 12:22:42.313
62.0, -525.9084716690704, -560.1379060135223, -0.4506579446606338, -314.8621772695333, 0.12800000607967377, 0.9920000471174717, 0.25600001215934753, 0.0, 0.0, 0.0, 0.0, 0.0, 1.7151025623292208E9, 0.0, 2024-05-07 12:22:42.329
62.0, -531.5033620027825, -561.7161437948234, -6.041808378417045, -320.2700726054609, 0.12800000607967377, 0.9920000471174717, 0.25600001215934753, 0.0, 0.0, 0.0, 0.0, 0.0, 1.7151025623292208E9, 0.0, 2024-05-07 12:22:42.329
63.0, -534.6747971652076, -559.1356128253974, -8.693397447001189, -322.01660588476807, 0.12800000607967377, 0.9920000471174717, 0.25600001215934753, 0.0, 0.0, 0.0, 0.0, 0.0, 1.7151025623298635E9, 0.0, 2024-05-07 12:22:42.329
63.0, -515.4853704925627, -554.7113111778162, -1.2547364351339638, -313.1081641903147, 0.12800000607967377, 0.9920000471174717, 0.25600001215934753, 0.0, 0.0, 0.0, 0.0, 0.0, 1.7151025623298635E9, 0.0, 2024-05-07 12:22:42.329
64.0, -522.8754128050059, -555.4817305686884, 4.115759901236743, -316.13000335451216, 0.12800000607967377, 0.9920000471174717, 0.25600001215934753, 0.0, 0.0, 0.0, 0.0, 0.0, 1.7151025623435564E9, 0.0, 2024-05-07 12:22:42.343
64.0, -540.7035158937797, -568.7209764118306, -11.692797211464494, -326.7513192286715, 0.12800000607967377, 0.9920000471174717, 0.25600001215934753, 0.0, 0.0, 0.0, 0.0, 0.0, 1.7151025623435564E9, 0.0, 2024-05-07 12:22:42.343
65.0, -518.0771211618558, -557.6845316425897, -7.107679865788668, -322.9029621742666, 0.12800000607967377, 0.9920000471174717, 0.25600001215934753, 0.0, 0.0, 0.0, 0.0, 0.0, 1.7151025623590903E9, 0.0, 2024-05-07 12:22:42.359
65.0, -523.006309303455, -558.2866555354558, -4.250396299641579, -317.87279673386365, 0.12800000607967377, 0.9920000471174717, 0.25600001215934753, 0.0, 0.0, 0.0, 0.0, 0.0, 1.7151025623590903E9, 0.0, 2024-05-07 12:22:42.359
66.0, -539.7984601045027, -568.1001530191861, -6.0979068777523935, -317.57734463736415, 0.12800000607967377, 0.9920000471174717, 0.25600001215934753, 0.0, 0.0, 0.0, 0.0, 0.0, 1.7151025623597932E9, 0.0, 2024-05-07 12:22:42.359
66.0, -528.6685178363696, -562.2696489882655, -17.194190046284348, -324.57469745445997, 0.12800000607967377, 0.9920000471174717, 0.25600001215934753, 0.0, 0.0, 0.0, 0.0, 0.0, 1.7151025623597932E9, 0.0, 2024-05-07 12:22:42.359
67.0, -525.3250472759828, -553.4509648927487, 0.1888649477623403, -311.4364289101213, 0.12800000607967377, 0.9920000471174717, 0.25600001215934753, 0.0, 0.0, 0.0, 0.0, 0.0, 1.7151025623735428E9, 0.0, 2024-05-07 12:22:42.373
67.0, -534.4878021674231, -554.3597605819814, -3.1583455125801265, -314.90705606900156, 0.12800000607967377, 0.9920000471174717, 0.25600001215934753, 0.0, 0.0, 0.0, 0.0, 0.0, 1.7151025623735428E9, 0.0, 2024-05-07 12:22:42.373
68.0, -541.773127281107, -566.9183446331881, -11.603039612527937, -325.9659402379766, 0.12800000607967377, 0.9920000471174717, 0.25600001215934753, 0.0, 0.0, 0.0, 0.0, 0.0, 1.7151025623892496E9, 0.0, 2024-05-07 12:22:42.389
68.0, -516.5886409794912, -562.8942122808658, -0.06544824922457337, -314.30867207609117, 0.12800000607967377, 0.9920000471174717, 0.25600001215934753, 0.0, 0.0, 0.0, 0.0, 0.0, 1.7151025623892496E9, 0.0, 2024-05-07 12:22:42.389
69.0, -530.0485409200191, -569.5886332015507, -6.24002307606861, -315.3259248640388, 0.12800000607967377, 0.9920000471174717, 0.25600001215934753, 0.0, 0.0, 0.0, 0.0, 0.0, 1.7151025623899307E9, 0.0, 2024-05-07 12:22:42.389
69.0, -543.9609687551856, -571.1032926836051, -13.641285088378936, -322.5588913783431, 0.12800000607967377, 0.9920000471174717, 0.25600001215934753, 0.0, 0.0, 0.0, 0.0, 0.0, 1.7151025623899307E9, 0.0, 2024-05-07 12:22:42.389
70.0, -530.665624412708, -562.0901337903924, -0.9218853390775621, -307.2664404595271, 0.12800000607967377, 0.9920000471174717, 0.2400000113993883, 0.0, 0.0, 0.0, 0.0, 0.0, 1.7151025624034429E9, 0.0, 2024-05-07 12:22:42.403
70.0, -536.7878406401724, -566.7126501356252, 4.291535199154168, -307.79750625323504, 0.12800000607967377, 0.9920000471174717, 0.2400000113993883, 0.0, 0.0, 0.0, 0.0, 0.0, 1.7151025624034429E9, 0.0, 2024-05-07 12:22:42.403
71.0, -545.1951357405633, -564.1470787660219, -5.626679483335465, -315.2548667648807, 0.12800000607967377, 0.9920000471174717, 0.2400000113993883, 0.0, 0.0, 0.0, 0.0, 0.0, 1.7151025624194117E9, 0.0, 2024-05-07 12:22:42.419
71.0, -542.1770364763215, -567.2250164295547, -13.783401286695153, -319.0097263203934, 0.12800000607967377, 0.9920000471174717, 0.2400000113993883, 0.0, 0.0, 0.0, 0.0, 0.0, 1.7151025624194117E9, 0.0, 2024-05-07 12:22:42.419
72.0, -534.1549510713667, -568.9827694087289, -0.3496806458570063, -306.45862206909806, 0.11200000531971455, 0.9920000471174717, 0.2400000113993883, 0.0, 0.0, 0.0, 0.0, 0.0, 1.7151025624198413E9, 0.0, 2024-05-07 12:22:42.419
72.0, -529.0724270315841, -557.3815997461788, -7.893058856483549, -312.4088028986007, 0.11200000531971455, 0.9920000471174717, 0.2400000113993883, 0.0, 0.0, 0.0, 0.0, 0.0, 1.7151025624198413E9, 0.0, 2024-05-07 12:22:42.419
73.0, -551.8409379618242, -568.9491103091277, -15.174644070211798, -328.2323196111247, 0.11200000531971455, 0.9920000471174717, 0.2400000113993883, 0.0, 0.0, 0.0, 0.0, 0.0, 1.715102562433532E9, 0.0, 2024-05-07 12:22:42.433
73.0, -540.0789526011795, -569.3118806048296, -2.3654867219738662, -316.2235008534044, 0.11200000531971455, 0.9920000471174717, 0.2400000113993883, 0.0, 0.0, 0.0, 0.0, 0.0, 1.715102562433532E9, 0.0, 2024-05-07 12:22:42.433
74.0, -530.7067633122206, -569.8279867987148, -2.4702039207331836, -313.5980910845101, 0.11200000531971455, 0.9920000471174717, 0.2400000113993883, 0.0, 0.0, 0.0, 0.0, 0.0, 1.715102562449108E9, 0.0, 2024-05-07 12:22:42.449
74.0, -545.8907571323216, -574.9105108384974, -11.677837611641735, -330.13966858852655, 0.11200000531971455, 0.9920000471174717, 0.2400000113993883, 0.0, 0.0, 0.0, 0.0, 0.0, 1.715102562449108E9, 0.0, 2024-05-07 12:22:42.449
75.0, -530.0560207199305, -574.7983138398267, -5.5331819844432175, -318.57963782548904, 0.11200000531971455, 0.9920000471174717, 0.2400000113993883, 0.0, 0.0, 0.0, 0.0, 0.0, 1.7151025624498348E9, 0.0, 2024-05-07 12:22:42.449
75.0, -529.1060861311853, -571.2454088819213, -2.694597918074578, -316.20480135362595, 0.11200000531971455, 0.9920000471174717, 0.2400000113993883, 0.0, 0.0, 0.0, 0.0, 0.0, 1.7151025624498348E9, 0.0, 2024-05-07 12:22:42.449
76.0, -536.466209243983, -571.6119190775789, -18.473235831130296, -327.7760518165305, 0.11200000531971455, 0.9920000471174717, 0.2400000113993883, 0.0, 0.0, 0.0, 0.0, 0.0, 1.7151025624634469E9, 0.0, 2024-05-07 12:22:42.463
76.0, -534.7832542639226, -575.2321422346868, -16.71548285195604, -332.0507574658841, 0.11200000531971455, 0.9920000471174717, 0.2400000113993883, 0.0, 0.0, 0.0, 0.0, 0.0, 1.7151025624634469E9, 0.0, 2024-05-07 12:22:42.463
77.0, -538.3772981213406, -568.1338121187873, -7.818260857369751, -321.32472439296544, 0.11200000531971455, 0.9920000471174717, 0.2400000113993883, 0.0, 0.0, 0.0, 0.0, 0.0, 1.715102562479184E9, 0.0, 2024-05-07 12:22:42.479
77.0, -529.1135659310967, -561.9480175920762, -5.9782300791703165, -321.4930198909715, 0.11200000531971455, 0.9920000471174717, 0.2400000113993883, 0.0, 0.0, 0.0, 0.0, 0.0, 1.715102562479184E9, 0.0, 2024-05-07 12:22:42.479
78.0, -532.6215920895338, -569.4801761028357, -15.694490164052695, -325.21796024683863, 0.11200000531971455, 0.9920000471174717, 0.2400000113993883, 0.0, 0.0, 0.0, 0.0, 0.0, 1.7151025624799278E9, 0.0, 2024-05-07 12:22:42.479
78.0, -528.0327348439023, -566.4396374388598, -6.090427077841014, -311.13349701371044, 0.11200000531971455, 0.9920000471174717, 0.2400000113993883, 0.0, 0.0, 0.0, 0.0, 0.0, 1.7151025624799278E9, 0.0, 2024-05-07 12:22:42.479
79.0, -528.0439545437694, -568.2759283171035, -4.964717191178352, -314.334851375781, 0.11200000531971455, 0.9920000471174717, 0.2400000113993883, 0.0, 0.0, 0.0, 0.0, 0.0, 1.715102562493489E9, 0.0, 2024-05-07 12:22:42.493
79.0, -540.8531118920073, -580.7447547693737, -16.408811055589467, -334.36575553845614, 0.11200000531971455, 0.9920000471174717, 0.2400000113993883, 0.0, 0.0, 0.0, 0.0, 0.0, 1.715102562493489E9, 0.0, 2024-05-07 12:22:42.493
80.0, -536.4923885436729, -568.4255243153311, -10.406271626707166, -319.6380295129493, 0.11200000531971455, 0.9920000471174717, 0.27200001291930676, 0.0, 0.0, 0.0, 0.0, 0.0, 1.715102562509369E9, 0.0, 2024-05-07 12:22:42.509
80.0, -529.0051088323817, -572.9582830616273, -10.851319721434265, -316.1861018538475, 0.11200000531971455, 0.9920000471174717, 0.27200001291930676, 0.0, 0.0, 0.0, 0.0, 0.0, 1.715102562509369E9, 0.0, 2024-05-07 12:22:42.509
81.0, -543.5047009605914, -579.7574211810715, -22.848918779287487, -326.0781372366473, 0.11200000531971455, 0.9920000471174717, 0.27200001291930676, 0.0, 0.0, 0.0, 0.0, 0.0, 1.715102562510176E9, 0.0, 2024-05-07 12:22:42.510
81.0, -533.8557590749115, -565.7963746464811, -12.870865697506815, -323.20963397063315, 0.11200000531971455, 0.9920000471174717, 0.27200001291930676, 0.0, 0.0, 0.0, 0.0, 0.0, 1.715102562510176E9, 0.0, 2024-05-07 12:22:42.510
82.0, -530.0560207199305, -562.2920883879997, -9.987402831669897, -315.7373138591647, 0.11200000531971455, 0.9920000471174717, 0.27200001291930676, 0.0, 0.0, 0.0, 0.0, 0.0, 1.715102562523558E9, 0.0, 2024-05-07 12:22:42.523
82.0, -529.7418691236526, -569.1922038062476, -11.947110408451408, -319.54453201405704, 0.11200000531971455, 0.9920000471174717, 0.27200001291930676, 0.0, 0.0, 0.0, 0.0, 0.0, 1.715102562523558E9, 0.0, 2024-05-07 12:22:42.523
83.0, -544.0619460539892, -569.2483023055829, -10.447410526219755, -322.487833279185, 0.11200000531971455, 0.9920000471174717, 0.27200001291930676, 0.0, 0.0, 0.0, 0.0, 0.0, 1.715102562539152E9, 0.0, 2024-05-07 12:22:42.539
83.0, -533.7024231767282, -569.2670018053614, 0.6750519420020282, -306.6605766667053, 0.11200000531971455, 0.9920000471174717, 0.27200001291930676, 0.0, 0.0, 0.0, 0.0, 0.0, 1.715102562539152E9, 0.0, 2024-05-07 12:22:42.539
84.0, -529.0088487323374, -565.7440160471015, 2.3841862217523158, -308.3697109464556, 0.11200000531971455, 0.9920000471174717, 0.27200001291930676, 0.0, 0.0, 0.0, 0.0, 0.0, 1.715102562539838E9, 0.0, 2024-05-07 12:22:42.539
84.0, -540.1275713006034, -571.2341891820543, -4.605686795432121, -320.2962519051507, 0.11200000531971455, 0.9920000471174717, 0.27200001291930676, 0.0, 0.0, 0.0, 0.0, 0.0, 1.715102562539838E9, 0.0, 2024-05-07 12:22:42.539
85.0, -526.8322269581258, -566.4658167385496, -2.1934513240121305, -314.2675331765786, 0.11200000531971455, 0.9920000471174717, 0.27200001291930676, 0.0, 0.0, 0.0, 0.0, 0.0, 1.715102562553511E9, 0.0, 2024-05-07 12:22:42.553
85.0, -525.467163474299, -569.6297721010633, -0.9144055391661823, -313.8150052819401, 0.11200000531971455, 0.9920000471174717, 0.27200001291930676, 0.0, 0.0, 0.0, 0.0, 0.0, 1.715102562553511E9, 0.0, 2024-05-07 12:22:42.553
86.0, -538.3062400221825, -572.4346970678307, -7.922978056129068, -326.03325843717903, 0.11200000531971455, 0.9920000471174717, 0.27200001291930676, 0.0, 0.0, 0.0, 0.0, 0.0, 1.715102562569275E9, 0.0, 2024-05-07 12:22:42.569
86.0, -540.9204300912097, -564.8427001577802, -8.023955354932696, -319.1481026187539, 0.11200000531971455, 0.9920000471174717, 0.27200001291930676, 0.0, 0.0, 0.0, 0.0, 0.0, 1.715102562569275E9, 0.0, 2024-05-07 12:22:42.569
87.0, -528.4852627385408, -566.84728653403, -4.949757591355592, -311.5224466091022, 0.11200000531971455, 0.9920000471174717, 0.27200001291930676, 0.0, 0.0, 0.0, 0.0, 0.0, 1.715102562570047E9, 0.0, 2024-05-07 12:22:42.570
87.0, -527.7522423472255, -558.7279637302272, 3.266802611295134, -311.8926967047155, 0.11200000531971455, 0.9920000471174717, 0.27200001291930676, 0.0, 0.0, 0.0, 0.0, 0.0, 1.715102562570047E9, 0.0, 2024-05-07 12:22:42.570
88.0, -546.380684026517, -567.6326655247249, -8.012735655065626, -324.2343665584922, 0.11200000531971455, 0.9920000471174717, 0.27200001291930676, 0.0, 0.0, 0.0, 0.0, 0.0, 1.7151025625834305E9, 0.0, 2024-05-07 12:22:42.583
88.0, -534.7757744640112, -566.9445239328779, -0.8545671398751438, -319.24907991755754, 0.11200000531971455, 0.9920000471174717, 0.27200001291930676, 0.0, 0.0, 0.0, 0.0, 0.0, 1.7151025625834305E9, 0.0, 2024-05-07 12:22:42.583
89.0, -524.1581984898075, -564.6557051599957, 4.736583293881267, -314.5629852730781, 0.11200000531971455, 0.9920000471174717, 0.27200001291930676, 0.0, 0.0, 0.0, 0.0, 0.0, 1.715102562599242E9, 0.0, 2024-05-07 12:22:42.599
89.0, -545.5018075369298, -574.3757051448338, -9.280561740044504, -333.1540279528126, 0.11200000531971455, 0.9920000471174717, 0.27200001291930676, 0.0, 0.0, 0.0, 0.0, 0.0, 1.715102562599242E9, 0.0, 2024-05-07 12:22:42.599
90.0, -531.6005994016305, -560.3323808112182, -0.42447864497080445, -314.68266207166016, 0.11200000531971455, 0.9920000471174717, 0.25600001215934753, 0.0, 0.0, 0.0, 0.0, 0.0, 1.7151025625999017E9, 0.0, 2024-05-07 12:22:42.599
90.0, -527.9616767447442, -559.5956205199473, 3.177045012358576, -313.5831314846873, 0.11200000531971455, 0.9920000471174717, 0.25600001215934753, 0.0, 0.0, 0.0, 0.0, 0.0, 1.7151025625999017E9, 0.0, 2024-05-07 12:22:42.599
91.0, -542.7679406693205, -567.9355974211358, -6.269942275714129, -325.24039964657277, 0.11200000531971455, 0.9920000471174717, 0.25600001215934753, 0.0, 0.0, 0.0, 0.0, 0.0, 1.7151025626134975E9, 0.0, 2024-05-07 12:22:42.613
91.0, -538.2987602222711, -571.8101337752305, -10.376352427061647, -327.0916501246393, 0.11200000531971455, 0.9920000471174717, 0.25600001215934753, 0.0, 0.0, 0.0, 0.0, 0.0, 1.7151025626134975E9, 0.0, 2024-05-07 12:22:42.613
92.0, -537.3039468340576, -564.8202607580461, 1.767102729063481, -319.05460511986166, 0.12800000607967377, 0.9920000471174717, 0.25600001215934753, 0.0, 0.0, 0.0, 0.0, 0.0, 1.7151025626291912E9, 0.0, 2024-05-07 12:22:42.629
92.0, -538.7774674165994, -564.8277405579574, -1.527749131899327, -322.50279287900776, 0.12800000607967377, 0.9920000471174717, 0.25600001215934753, 0.0, 0.0, 0.0, 0.0, 0.0, 1.7151025626291912E9, 0.0, 2024-05-07 12:22:42.629
93.0, -551.2612534686923, -570.6358051891439, -16.28913425700739, -331.0821233773604, 0.12800000607967377, 0.9920000471174717, 0.25600001215934753, 0.0, 0.0, 0.0, 0.0, 0.0, 1.7151025626299183E9, 0.0, 2024-05-07 12:22:42.629
93.0, -533.2087563825771, -564.8651395575143, -6.374659474473447, -312.5845781965181, 0.12800000607967377, 0.9920000471174717, 0.25600001215934753, 0.0, 0.0, 0.0, 0.0, 0.0, 1.7151025626299183E9, 0.0, 2024-05-07 12:22:42.629
94.0, -534.0464939726517, -572.3898182683624, -2.4664640207774937, -318.13458973076195, 0.12800000607967377, 0.9920000471174717, 0.25600001215934753, 0.0, 0.0, 0.0, 0.0, 0.0, 1.7151025626433733E9, 0.0, 2024-05-07 12:22:42.643
94.0, -531.6118191014975, -575.5014150314964, -8.382985750678927, -329.8591760918498, 0.12800000607967377, 0.9920000471174717, 0.25600001215934753, 0.0, 0.0, 0.0, 0.0, 0.0, 1.7151025626433733E9, 0.0, 2024-05-07 12:22:42.643
95.0, -528.1598914423957, -567.71494332375, 4.497229696717113, -320.34861050453037, 0.12800000607967377, 0.9920000471174717, 0.25600001215934753, 0.0, 0.0, 0.0, 0.0, 0.0, 1.7151025626591237E9, 0.0, 2024-05-07 12:22:42.659
95.0, -533.7660014759749, -566.4620768385939, 5.0507348901592195, -315.5241395616904, 0.12800000607967377, 0.9920000471174717, 0.25600001215934753, 0.0, 0.0, 0.0, 0.0, 0.0, 1.7151025626591237E9, 0.0, 2024-05-07 12:22:42.659
96.0, -538.3211996220052, -571.2341891820543, -5.204070788342506, -324.7542126523331, 0.12800000607967377, 0.9920000471174717, 0.25600001215934753, 0.0, 0.0, 0.0, 0.0, 0.0, 1.7151025626598005E9, 0.0, 2024-05-07 12:22:42.659
96.0, -545.5766055360436, -564.65196526004, -3.629572906997055, -324.5185989551246, 0.12800000607967377, 0.9920000471174717, 0.25600001215934753, 0.0, 0.0, 0.0, 0.0, 0.0, 1.7151025626598005E9, 0.0, 2024-05-07 12:22:42.659
97.0, -531.8997913980857, -565.822553946171, -3.259322811383754, -315.06413186714053, 0.12800000607967377, 0.9920000471174717, 0.25600001215934753, 0.0, 0.0, 0.0, 0.0, 0.0, 1.7151025626736243E9, 0.0, 2024-05-07 12:22:42.673
97.0, -534.2073096707463, -566.4396374388598, -3.132166212890297, -313.84118458162993, 0.12800000607967377, 0.9920000471174717, 0.25600001215934753, 0.0, 0.0, 0.0, 0.0, 0.0, 1.7151025626736243E9, 0.0, 2024-05-07 12:22:42.673
98.0, -553.845524338074, -576.93005681457, -18.33859943272546, -330.3042241865769, 0.12800000607967377, 0.9920000471174717, 0.25600001215934753, 0.0, 0.0, 0.0, 0.0, 0.0, 1.7151025626892617E9, 0.0, 2024-05-07 12:22:42.689
98.0, -534.7720345640555, -565.1493719541468, 2.3131281225942075, -310.12372402567416, 0.12800000607967377, 0.9920000471174717, 0.25600001215934753, 0.0, 0.0, 0.0, 0.0, 0.0, 1.7151025626892617E9, 0.0, 2024-05-07 12:22:42.689
99.0, -532.2289025941864, -575.3817382329144, -7.354513262864202, -309.42810263391584, 0.12800000607967377, 0.9920000471174717, 0.25600001215934753, 0.0, 0.0, 0.0, 0.0, 0.0, 1.7151025626899123E9, 0.0, 2024-05-07 12:22:42.689
99.0, -535.766847952269, -571.6418382772245, -8.072574054356664, -326.25017263460904, 0.12800000607967377, 0.9920000471174717, 0.25600001215934753, 0.0, 0.0, 0.0, 0.0, 0.0, 1.7151025626899123E9, 0.0, 2024-05-07 12:22:42.689
100.0, -536.2231157468632, -562.6324192839675, 5.750096181873232, -311.95253510400653, 0.12800000607967377, 0.9920000471174717, 0.25600001215934753, 0.0, 0.0, 0.0, 0.0, 0.0, 1.715102562704254E9, 0.0, 2024-05-07 12:22:42.704
100.0, -529.7979676229879, -564.8726193574257, -8.091273554135114, -316.42545545101166, 0.12800000607967377, 0.9920000471174717, 0.25600001215934753, 0.0, 0.0, 0.0, 0.0, 0.0, 1.715102562704254E9, 0.0, 2024-05-07 12:22:42.704
0.0, -544.7351280460134, -566.2788217407651, -10.361392827238888, -329.44965704670176, 0.12800000607967377, 0.9920000471174717, 0.25600001215934753, 0.0, 0.0, 0.0, 0.0, 0.0, 1.7151025627050028E9, 0.0, 2024-05-07 12:22:42.705
1.0, -537.4984216317534, -558.3128348351456, -10.193097329232842, -322.4710037293844, 0.12800000607967377, 0.9920000471174717, 0.25600001215934753, 0.0, 0.0, 0.0, 0.0, 0.0, 1.7151025627184308E9, 0.0, 2024-05-07 12:22:42.718
1.0, -538.9083639150485, -561.323454299476, -2.010196226183325, -317.40343928942457, 0.12800000607967377, 0.9920000471174717, 0.25600001215934753, 0.0, 0.0, 0.0, 0.0, 0.0, 1.7151025627184308E9, 0.0, 2024-05-07 12:22:42.718
2.0, -532.3448394928128, -561.1888179010712, -10.484809525776654, -317.2351437914185, 0.11200000531971455, 0.9920000471174717, 0.25600001215934753, 0.0, 0.0, 0.0, 0.0, 0.0, 1.7151025627343793E9, 0.0, 2024-05-07 12:22:42.734
2.0, -545.8944970322773, -561.4057320985012, -17.837452838663012, -331.4280641232617, 0.11200000531971455, 0.9920000471174717, 0.25600001215934753, 0.0, 0.0, 0.0, 0.0, 0.0, 1.7151025627343793E9, 0.0, 2024-05-07 12:22:42.734
3.0, -527.7447625473142, -562.1462322897278, 0.48057714430615306, -317.2463634912856, 0.11200000531971455, 0.9920000471174717, 0.25600001215934753, 0.0, 0.0, 0.0, 0.0, 0.0, 1.715102562734812E9, 0.0, 2024-05-07 12:22:42.734
3.0, -530.6132658133283, -558.6980445305817, 0.443178144749254, -316.15057280426845, 0.11200000531971455, 0.9920000471174717, 0.25600001215934753, 0.0, 0.0, 0.0, 0.0, 0.0, 1.715102562734812E9, 0.0, 2024-05-07 12:22:42.734
4.0, -543.6804762585089, -561.2823153999634, -12.369719103444368, -325.64243889180943, 0.11200000531971455, 0.9920000471174717, 0.25600001215934753, 0.0, 0.0, 0.0, 0.0, 0.0, 1.7151025627487595E9, 0.0, 2024-05-07 12:22:42.748
4.0, -533.294774081558, -563.5225154734217, 4.957237391266972, -307.96767170121893, 0.11200000531971455, 0.9920000471174717, 0.25600001215934753, 0.0, 0.0, 0.0, 0.0, 0.0, 1.7151025627487595E9, 0.0, 2024-05-07 12:22:42.748
5.0, -527.2772750528529, -569.9663630970754, -1.2696960349567235, -313.9515116303228, 0.11200000531971455, 0.9920000471174717, 0.25600001215934753, 0.0, 0.0, 0.0, 0.0, 0.0, 1.7151025627641163E9, 0.0, 2024-05-07 12:22:42.764
5.0, -537.057113436982, -565.4560437505133, -7.926717956084758, -319.4977832646109, 0.11200000531971455, 0.9920000471174717, 0.25600001215934753, 0.0, 0.0, 0.0, 0.0, 0.0, 1.7151025627641163E9, 0.0, 2024-05-07 12:22:42.764
6.0, -539.6152050066739, -567.5129887261428, -12.534274701494724, -327.721823267173, 0.11200000531971455, 0.9920000471174717, 0.25600001215934753, 0.0, 0.0, 0.0, 0.0, 0.0, 1.7151025627648396E9, 0.0, 2024-05-07 12:22:42.764
6.0, -534.7084562648088, -559.3861861224286, -6.146525577176362, -311.74123075651005, 0.11200000531971455, 0.9920000471174717, 0.25600001215934753, 0.0, 0.0, 0.0, 0.0, 0.0, 1.7151025627648396E9, 0.0, 2024-05-07 12:22:42.764
7.0, -530.7329426119104, -558.6120268316008, -7.605086559895426, -311.43829886009917, 0.11200000531971455, 0.9920000471174717, 0.25600001215934753, 0.0, 0.0, 0.0, 0.0, 0.0, 1.7151025627784033E9, 0.0, 2024-05-07 12:22:42.778
7.0, -548.2730734040961, -562.67355818348, -22.3253327854909, -325.7359363907017, 0.11200000531971455, 0.9920000471174717, 0.25600001215934753, 0.0, 0.0, 0.0, 0.0, 0.0, 1.7151025627784033E9, 0.0, 2024-05-07 12:22:42.778
8.0, -510.716998049058, -556.715897554066, 10.754082322586328, -312.6575062456541, 0.11200000531971455, 0.9920000471174717, 0.25600001215934753, 0.0, 0.0, 0.0, 0.0, 0.0, 1.7151025627943037E9, 0.0, 2024-05-07 12:22:42.794
8.0, -506.4348125997931, -556.2521499595605, 27.20216232771054, -303.2815770567395, 0.11200000531971455, 0.9920000471174717, 0.25600001215934753, 0.0, 0.0, 0.0, 0.0, 0.0, 1.7151025627943037E9, 0.0, 2024-05-07 12:22:42.794
9.0, -512.8113420242444, -568.1674712183885, 21.424016896169633, -317.71385098574683, 0.11200000531971455, 0.9920000471174717, 0.25600001215934753, 0.0, 0.0, 0.0, 0.0, 0.0, 1.7151025627949193E9, 0.0, 2024-05-07 12:22:42.794
9.0, -500.4921115702018, -558.6531657311134, 43.919515129644424, -301.7108190753497, 0.11200000531971455, 0.9920000471174717, 0.25600001215934753, 0.0, 0.0, 0.0, 0.0, 0.0, 1.7151025627949193E9, 0.0, 2024-05-07 12:22:42.794
10.0, -498.26313119661063, -554.5467555797659, 37.53924580523744, -296.2281257403083, 0.11200000531971455, 0.9920000471174717, 0.2400000113993883, 0.0, 0.0, 0.0, 0.0, 0.0, 1.7151025628084807E9, 0.0, 2024-05-07 12:22:42.808
10.0, -501.8347356542945, -574.5851395423524, 37.10541741037741, -306.62130771717057, 0.11200000531971455, 0.9920000471174717, 0.2400000113993883, 0.0, 0.0, 0.0, 0.0, 0.0, 1.7151025628084807E9, 0.0, 2024-05-07 12:22:42.808
11.0, -505.81398920714855, -566.798667834606, 37.793559002224356, -305.1216078349389, 0.11200000531971455, 0.9920000471174717, 0.2400000113993883, 0.0, 0.0, 0.0, 0.0, 0.0, 1.715102562824328E9, 0.0, 2024-05-07 12:22:42.824
11.0, -499.74413157906383, -563.5486947731115, 47.72299338458106, -298.37856821483, 0.11200000531971455, 0.9920000471174717, 0.2400000113993883, 0.0, 0.0, 0.0, 0.0, 0.0, 1.715102562824328E9, 0.0, 2024-05-07 12:22:42.824
12.0, -494.0968826459721, -562.5389217850752, 33.27201995579526, -304.8373754383065, 0.09600000455975533, 0.9920000471174717, 0.2400000113993883, 0.0, 0.0, 0.0, 0.0, 0.0, 1.7151025628250415E9, 0.0, 2024-05-07 12:22:42.825
12.0, -503.8318422306329, -572.6254319655709, 20.986448601353914, -319.52022266434506, 0.09600000455975533, 0.9920000471174717, 0.2400000113993883, 0.0, 0.0, 0.0, 0.0, 0.0, 1.7151025628250415E9, 0.0, 2024-05-07 12:22:42.825
13.0, -501.322369360365, -560.4109187102877, 30.605471287388355, -308.1995454984717, 0.09600000455975533, 0.9920000471174717, 0.2400000113993883, 0.0, 0.0, 0.0, 0.0, 0.0, 1.7151025628384328E9, 0.0, 2024-05-07 12:22:42.838
13.0, -511.248063842766, -568.3095874167047, 26.061492841225117, -306.6736663165502, 0.09600000455975533, 0.9920000471174717, 0.2400000113993883, 0.0, 0.0, 0.0, 0.0, 0.0, 1.7151025628384328E9, 0.0, 2024-05-07 12:22:42.838
14.0, -524.5321884853765, -583.3963438379578, 3.6819315063767135, -323.4732969175093, 0.09600000455975533, 0.9920000471174717, 0.2400000113993883, 0.0, 0.0, 0.0, 0.0, 0.0, 1.7151025628542137E9, 0.0, 2024-05-07 12:22:42.854
14.0, -514.4755975045264, -567.8084408226423, 16.509788354393095, -311.9544050539844, 0.09600000455975533, 0.9920000471174717, 0.2400000113993883, 0.0, 0.0, 0.0, 0.0, 0.0, 1.7151025628542137E9, 0.0, 2024-05-07 12:22:42.854
15.0, -523.0250088032335, -565.3625462516211, 18.33859943272546, -307.58994180569425, 0.09600000455975533, 0.9920000471174717, 0.2400000113993883, 0.0, 0.0, 0.0, 0.0, 0.0, 1.7151025628547993E9, 0.0, 2024-05-07 12:22:42.854
15.0, -529.3005609288812, -569.8653857982717, 12.26126200472936, -317.7175908857025, 0.09600000455975533, 0.9920000471174717, 0.2400000113993883, 0.0, 0.0, 0.0, 0.0, 0.0, 1.7151025628547993E9, 0.0, 2024-05-07 12:22:42.854
16.0, -532.2999606933445, -561.6076866961084, 4.893659092020243, -319.15745236864313, 0.09600000455975533, 0.9920000471174717, 0.2400000113993883, 0.0, 0.0, 0.0, 0.0, 0.0, 1.7151025628686335E9, 0.0, 2024-05-07 12:22:42.868
16.0, -523.8590064933524, -558.054781738203, 16.26669485727325, -303.793943350669, 0.09600000455975533, 0.9920000471174717, 0.2400000113993883, 0.0, 0.0, 0.0, 0.0, 0.0, 1.7151025628686335E9, 0.0, 2024-05-07 12:22:42.868
17.0, -527.8868787456304, -559.0757744261064, 5.589280483778566, -308.14344699913636, 0.09600000455975533, 0.9920000471174717, 0.2400000113993883, 0.0, 0.0, 0.0, 0.0, 0.0, 1.715102562884182E9, 0.0, 2024-05-07 12:22:42.884
17.0, -542.1396374767646, -561.0654012025334, 2.8741131159476936, -315.25673671485856, 0.09600000455975533, 0.9920000471174717, 0.2400000113993883, 0.0, 0.0, 0.0, 0.0, 0.0, 1.715102562884182E9, 0.0, 2024-05-07 12:22:42.884
18.0, -532.2139429943636, -564.9474173565395, 13.293474392499775, -308.618414293509, 0.09600000455975533, 0.9920000471174717, 0.2400000113993883, 0.0, 0.0, 0.0, 0.0, 0.0, 1.7151025628848968E9, 0.0, 2024-05-07 12:22:42.884
18.0, -526.6527117602527, -557.0637082499452, 8.001515955198556, -308.0499495002441, 0.09600000455975533, 0.9920000471174717, 0.2400000113993883, 0.0, 0.0, 0.0, 0.0, 0.0, 1.7151025628848968E9, 0.0, 2024-05-07 12:22:42.884
19.0, -540.5576597955078, -557.404039145913, -7.874359356705099, -325.1076331981458, 0.09600000455975533, 0.9920000471174717, 0.2400000113993883, 0.0, 0.0, 0.0, 0.0, 0.0, 1.7151025628985536E9, 0.0, 2024-05-07 12:22:42.898
19.0, -537.8088333280757, -560.0294489148073, 1.4005925334058702, -319.135012968909, 0.09600000455975533, 0.9920000471174717, 0.2400000113993883, 0.0, 0.0, 0.0, 0.0, 0.0, 1.7151025628985536E9, 0.0, 2024-05-07 12:22:42.898
20.0, -532.0419075964019, -561.4842699975707, 4.601946895476431, -317.26132309110835, 0.09600000455975533, 0.9920000471174717, 0.25600001215934753, 0.0, 0.0, 0.0, 0.0, 0.0, 1.7151025629142108E9, 0.0, 2024-05-07 12:22:42.914
20.0, -538.6316113183275, -562.5838005845435, -4.141939200926572, -320.1410460569896, 0.09600000455975533, 0.9920000471174717, 0.25600001215934753, 0.0, 0.0, 0.0, 0.0, 0.0, 1.7151025629142108E9, 0.0, 2024-05-07 12:22:42.914
21.0, -546.4741815254092, -560.781168805901, -0.11780684860423207, -319.5389221641235, 0.09600000455975533, 1.008000047877431, 0.25600001215934753, 0.0, 0.0, 0.0, 0.0, 0.0, 1.715102562914796E9, 0.0, 2024-05-07 12:22:42.914
21.0, -535.7743277521804, -562.6997374831699, 3.147125812713057, -308.3603611965664, 0.09600000455975533, 1.008000047877431, 0.25600001215934753, 0.0, 0.0, 0.0, 0.0, 0.0, 1.715102562914796E9, 0.0, 2024-05-07 12:22:42.914
22.0, -538.336159221828, -567.0342815318145, 6.63645247137174, -312.2835162500851, 0.12800000607967377, 1.008000047877431, 0.25600001215934753, 0.0, 0.0, 0.0, 0.0, 0.0, 1.7151025629285145E9, 0.0, 2024-05-07 12:22:42.928
22.0, -545.5205070367083, -562.4529040860943, -3.9287649034522474, -319.0302957701497, 0.12800000607967377, 1.008000047877431, 0.25600001215934753, 0.0, 0.0, 0.0, 0.0, 0.0, 1.7151025629285145E9, 0.0, 2024-05-07 12:22:42.928
23.0, -540.1238314006478, -565.6804377478547, 1.8792997277341783, -314.3853400251828, 0.12800000607967377, 1.008000047877431, 0.25600001215934753, 0.0, 0.0, 0.0, 0.0, 0.0, 1.7151025629441743E9, 0.0, 2024-05-07 12:22:42.944
23.0, -540.2883869986981, -562.5314419851638, 8.390465550590307, -313.7158979331143, 0.12800000607967377, 1.008000047877431, 0.25600001215934753, 0.0, 0.0, 0.0, 0.0, 0.0, 1.7151025629441743E9, 0.0, 2024-05-07 12:22:42.944
24.0, -547.4951742133126, -566.8098875344731, -4.2429164997302, -329.0270483517088, 0.12800000607967377, 1.008000047877431, 0.25600001215934753, 0.0, 0.0, 0.0, 0.0, 0.0, 1.7151025629448264E9, 0.0, 2024-05-07 12:22:42.944
24.0, -540.9877482904121, -565.931011044886, 0.9181454391218722, -314.0861480287276, 0.12800000607967377, 1.008000047877431, 0.25600001215934753, 0.0, 0.0, 0.0, 0.0, 0.0, 1.7151025629448264E9, 0.0, 2024-05-07 12:22:42.944
25.0, -536.2642546463758, -560.8036082056351, 3.9212851035408676, -313.4279256365262, 0.12800000607967377, 1.008000047877431, 0.25600001215934753, 0.0, 0.0, 0.0, 0.0, 0.0, 1.7151025629584293E9, 0.0, 2024-05-07 12:22:42.958
25.0, -551.5941045647487, -564.4874096619897, -1.247256635222584, -324.64388560364023, 0.12800000607967377, 1.008000047877431, 0.25600001215934753, 0.0, 0.0, 0.0, 0.0, 0.0, 1.7151025629584293E9, 0.0, 2024-05-07 12:22:42.958
26.0, -540.0677329013124, -563.7917882702313, 1.131319736596197, -318.25987637927756, 0.12800000607967377, 1.008000047877431, 0.25600001215934753, 0.0, 0.0, 0.0, 0.0, 0.0, 1.7151025629743063E9, 0.0, 2024-05-07 12:22:42.974
26.0, -533.5565670784563, -568.1188525189646, 5.82489418098703, -314.5461557232775, 0.12800000607967377, 1.008000047877431, 0.25600001215934753, 0.0, 0.0, 0.0, 0.0, 0.0, 1.7151025629743063E9, 0.0, 2024-05-07 12:22:42.974
27.0, -535.5574135547504, -570.5273480904289, 2.0251558260060847, -318.4618309768848, 0.12800000607967377, 1.008000047877431, 0.25600001215934753, 0.0, 0.0, 0.0, 0.0, 0.0, 1.7151025629747944E9, 0.0, 2024-05-07 12:22:42.974
27.0, -550.0196066834033, -565.8936120453291, -4.8899191920645535, -326.7344896788709, 0.12800000607967377, 1.008000047877431, 0.25600001215934753, 0.0, 0.0, 0.0, 0.0, 0.0, 1.7151025629747944E9, 0.0, 2024-05-07 12:22:42.974
28.0, -531.630518601276, -564.2966747642495, 4.160638700705022, -316.7564365970902, 0.12800000607967377, 1.008000047877431, 0.25600001215934753, 0.0, 0.0, 0.0, 0.0, 0.0, 1.7151025629888144E9, 0.0, 2024-05-07 12:22:42.988
28.0, -525.3362669758499, -566.3237005402334, 7.3058945634402335, -313.8430545316078, 0.12800000607967377, 1.008000047877431, 0.25600001215934753, 0.0, 0.0, 0.0, 0.0, 0.0, 1.7151025629888144E9, 0.0, 2024-05-07 12:22:42.988
29.0, -542.1620768764988, -571.4137043799274, -11.019615219440311, -333.2980141011067, 0.12800000607967377, 1.008000047877431, 0.25600001215934753, 0.0, 0.0, 0.0, 0.0, 0.0, 1.715102563004314E9, 0.0, 2024-05-07 12:22:43.004
29.0, -534.4317036680877, -563.1298259780742, -0.16642554802820086, -319.2883488670923, 0.12800000607967377, 1.008000047877431, 0.25600001215934753, 0.0, 0.0, 0.0, 0.0, 0.0, 1.715102563004314E9, 0.0, 2024-05-07 12:22:43.004
30.0, -528.15615154244, -566.9295643330552, -0.5852943430654705, -321.59212723979726, 0.12800000607967377, 1.008000047877431, 0.2240000106394291, 0.0, 0.0, 0.0, 0.0, 0.0, 1.715102563004841E9, 0.0, 2024-05-07 12:22:43.004
30.0, -534.2521884702146, -571.7278559762053, -6.322300875093788, -324.6513654035516, 0.12800000607967377, 1.008000047877431, 0.2240000106394291, 0.0, 0.0, 0.0, 0.0, 0.0, 1.715102563004841E9, 0.0, 2024-05-07 12:22:43.004
31.0, -532.7001299886033, -575.9315035264008, -2.933951515238732, -333.96745619317517, 0.12800000607967377, 0.9600000455975533, 0.2240000106394291, 0.0, 0.0, 0.0, 0.0, 0.0, 1.7151025630185378E9, 0.0, 2024-05-07 12:22:43.018
31.0, -529.5623539257795, -568.3507263162173, 0.645132742356509, -323.3573600188829, 0.12800000607967377, 0.9600000455975533, 0.2240000106394291, 0.0, 0.0, 0.0, 0.0, 0.0, 1.7151025630185378E9, 0.0, 2024-05-07 12:22:43.018
32.0, -525.8710726695135, -567.4755897265859, -4.598206995520741, -323.0693877222948, 0.11200000531971455, 0.9600000455975533, 0.2240000106394291, 0.0, 0.0, 0.0, 0.0, 0.0, 1.7151025630340693E9, 0.0, 2024-05-07 12:22:43.034
32.0, -539.8171596042812, -573.7174827526323, -5.944570979569107, -330.0592607394792, 0.11200000531971455, 0.9600000455975533, 0.2240000106394291, 0.0, 0.0, 0.0, 0.0, 0.0, 1.7151025630340693E9, 0.0, 2024-05-07 12:22:43.034
33.0, -521.5066094212234, -562.2546893884428, 7.335813763085753, -312.4966905475594, 0.11200000531971455, 0.9600000455975533, 0.2240000106394291, 0.0, 0.0, 0.0, 0.0, 0.0, 1.7151025630347831E9, 0.0, 2024-05-07 12:22:43.034
33.0, -515.6873250901699, -561.80590139376, 5.903432080056518, -311.00073056528345, 0.11200000531971455, 0.9600000455975533, 0.2240000106394291, 0.0, 0.0, 0.0, 0.0, 0.0, 1.7151025630347831E9, 0.0, 2024-05-07 12:22:43.034
34.0, -531.2041700063273, -576.398991020862, -13.970396284479648, -333.38403180008754, 0.11200000531971455, 0.9600000455975533, 0.2240000106394291, 0.0, 0.0, 0.0, 0.0, 0.0, 1.7151025630485573E9, 0.0, 2024-05-07 12:22:43.048
34.0, -521.764662518166, -565.3775058514439, -2.4739438206888735, -322.18677133275196, 0.11200000531971455, 0.9600000455975533, 0.2240000106394291, 0.0, 0.0, 0.0, 0.0, 0.0, 1.7151025630485573E9, 0.0, 2024-05-07 12:22:43.048
35.0, -521.5066094212234, -565.9871095442213, -6.688811070751399, -315.67560550989583, 0.11200000531971455, 0.9600000455975533, 0.2240000106394291, 0.0, 0.0, 0.0, 0.0, 0.0, 1.7151025630640583E9, 0.0, 2024-05-07 12:22:43.064
35.0, -533.2798144817352, -570.8414996867068, -9.07486724248156, -321.3228544429876, 0.11200000531971455, 0.9600000455975533, 0.2240000106394291, 0.0, 0.0, 0.0, 0.0, 0.0, 1.7151025630640583E9, 0.0, 2024-05-07 12:22:43.064
36.0, -536.6606840416789, -572.0420075724833, -10.544647925067693, -323.9520041118376, 0.11200000531971455, 0.9600000455975533, 0.2240000106394291, 0.0, 0.0, 0.0, 0.0, 0.0, 1.7151025630648005E9, 0.0, 2024-05-07 12:22:43.064
36.0, -528.2945278408006, -562.3893257868476, -3.6108734072186053, -312.55278904689476, 0.11200000531971455, 0.9600000455975533, 0.2240000106394291, 0.0, 0.0, 0.0, 0.0, 0.0, 1.7151025630648005E9, 0.0, 2024-05-07 12:22:43.064
37.0, -526.2076636655256, -563.6421922720037, -9.501215837430209, -326.3492799834348, 0.11200000531971455, 0.9600000455975533, 0.2240000106394291, 0.0, 0.0, 0.0, 0.0, 0.0, 1.7151025630784032E9, 0.0, 2024-05-07 12:22:43.078
37.0, -533.9193373741582, -567.823400422465, -15.750588663388044, -324.718683602754, 0.11200000531971455, 0.9600000455975533, 0.2240000106394291, 0.0, 0.0, 0.0, 0.0, 0.0, 1.7151025630784032E9, 0.0, 2024-05-07 12:22:43.078
38.0, -529.9363439213485, -563.9675635681488, -1.5988072310574353, -316.8013153965585, 0.11200000531971455, 0.9600000455975533, 0.2240000106394291, 0.0, 0.0, 0.0, 0.0, 0.0, 1.7151025630942495E9, 0.0, 2024-05-07 12:22:43.094
38.0, -523.043708303012, -557.9351049396209, -4.20925740012899, -314.0973677285947, 0.11200000531971455, 0.9600000455975533, 0.2240000106394291, 0.0, 0.0, 0.0, 0.0, 0.0, 1.7151025630942495E9, 0.0, 2024-05-07 12:22:43.094
39.0, -520.0742277381942, -573.3808917566203, -13.555267389398068, -328.38004565937445, 0.11200000531971455, 0.9600000455975533, 0.2240000106394291, 0.0, 0.0, 0.0, 0.0, 0.0, 1.7151025630947685E9, 0.0, 2024-05-07 12:22:43.094
39.0, -525.7364362711087, -561.7049240949564, -2.3243478224612772, -315.9373985067941, 0.11200000531971455, 0.9600000455975533, 0.2240000106394291, 0.0, 0.0, 0.0, 0.0, 0.0, 1.7151025630947685E9, 0.0, 2024-05-07 12:22:43.094
40.0, -521.5589680206031, -562.4865631856956, -2.1597922244109213, -310.9408921659924, 0.11200000531971455, 0.9600000455975533, 0.25600001215934753, 0.0, 0.0, 0.0, 0.0, 0.0, 1.715102563108649E9, 0.0, 2024-05-07 12:22:43.108
40.0, -533.3658321807161, -569.8205069988035, -5.394805686082691, -321.37895294232294, 0.11200000531971455, 0.9600000455975533, 0.25600001215934753, 0.0, 0.0, 0.0, 0.0, 0.0, 1.715102563108649E9, 0.0, 2024-05-07 12:22:43.108
41.0, -532.2064631944522, -563.5412149732001, -10.68676412338391, -321.124639745336, 0.11200000531971455, 0.9760000463575125, 0.25600001215934753, 0.0, 0.0, 0.0, 0.0, 0.0, 1.715102563124244E9, 0.0, 2024-05-07 12:22:43.124
41.0, -528.2683485411108, -563.1073865783401, -5.398545586038381, -317.3473407900892, 0.11200000531971455, 0.9760000463575125, 0.25600001215934753, 0.0, 0.0, 0.0, 0.0, 0.0, 1.715102563124244E9, 0.0, 2024-05-07 12:22:43.124
42.0, -521.0802608262748, -560.2800222118385, -2.286948822904378, -308.81288909120485, 0.11200000531971455, 0.9760000463575125, 0.25600001215934753, 0.0, 0.0, 0.0, 0.0, 0.0, 1.7151025631248355E9, 0.0, 2024-05-07 12:22:43.124
42.0, -535.5162746552378, -558.0136428386904, -8.801854545716196, -322.1344127333723, 0.11200000531971455, 0.9760000463575125, 0.25600001215934753, 0.0, 0.0, 0.0, 0.0, 0.0, 1.7151025631248355E9, 0.0, 2024-05-07 12:22:43.124
43.0, -524.6182061843574, -557.5087563446723, -1.5389688317663968, -311.56171555863693, 0.11200000531971455, 0.9760000463575125, 0.25600001215934753, 0.0, 0.0, 0.0, 0.0, 0.0, 1.7151025631384819E9, 0.0, 2024-05-07 12:22:43.138
43.0, -528.6460784366354, -567.0791603312828, -0.5142362439073622, -309.59078828198835, 0.11200000531971455, 0.9760000463575125, 0.25600001215934753, 0.0, 0.0, 0.0, 0.0, 0.0, 1.7151025631384819E9, 0.0, 2024-05-07 12:22:43.138
44.0, -541.7020691819489, -567.2661553290673, -11.909711408894509, -328.26036886079237, 0.11200000531971455, 0.9760000463575125, 0.25600001215934753, 0.0, 0.0, 0.0, 0.0, 0.0, 1.7151025631542296E9, 0.0, 2024-05-07 12:22:43.154
44.0, -533.5827463781461, -568.8705724100582, -2.290688722860068, -316.59562089899555, 0.11200000531971455, 0.9760000463575125, 0.25600001215934753, 0.0, 0.0, 0.0, 0.0, 0.0, 1.7151025631542296E9, 0.0, 2024-05-07 12:22:43.154
45.0, -525.2315497770905, -568.6050395132042, -5.106833389494568, -313.9552515302785, 0.11200000531971455, 0.9760000463575125, 0.25600001215934753, 0.0, 0.0, 0.0, 0.0, 0.0, 1.7151025631549602E9, 0.0, 2024-05-07 12:22:43.154
45.0, -537.5133812315762, -569.6596913007088, -10.23423622874543, -319.5389221641235, 0.11200000531971455, 0.9760000463575125, 0.25600001215934753, 0.0, 0.0, 0.0, 0.0, 0.0, 1.7151025631549602E9, 0.0, 2024-05-07 12:22:43.154
46.0, -538.4109572209418, -570.4637697911821, -12.399638303089887, -328.3538663596846, 0.11200000531971455, 0.9760000463575125, 0.25600001215934753, 0.0, 0.0, 0.0, 0.0, 0.0, 1.715102563168546E9, 0.0, 2024-05-07 12:22:43.168
46.0, -524.7229233831167, -569.7868478992023, -7.773382057901472, -311.3784604608081, 0.11200000531971455, 0.9760000463575125, 0.25600001215934753, 0.0, 0.0, 0.0, 0.0, 0.0, 1.715102563168546E9, 0.0, 2024-05-07 12:22:43.168
47.0, -528.1860707420856, -562.8605531812645, -4.987156590912491, -318.92931847134605, 0.11200000531971455, 0.9760000463575125, 0.25600001215934753, 0.0, 0.0, 0.0, 0.0, 0.0, 1.7151025631842532E9, 0.0, 2024-05-07 12:22:43.184
47.0, -531.5519807022065, -565.4036851511337, -14.752035375218838, -329.0270483517088, 0.11200000531971455, 0.9760000463575125, 0.25600001215934753, 0.0, 0.0, 0.0, 0.0, 0.0, 1.7151025631842532E9, 0.0, 2024-05-07 12:22:43.184
48.0, -512.1942585315555, -568.5526809138246, 4.347633698489517, -321.86140003660694, 0.11200000531971455, 0.9760000463575125, 0.25600001215934753, 0.0, 0.0, 0.0, 0.0, 0.0, 1.7151025631849585E9, 0.0, 2024-05-07 12:22:43.184
48.0, -517.0935274735093, -566.0058090439998, 6.423278173897415, -315.8252015081234, 0.11200000531971455, 0.9760000463575125, 0.25600001215934753, 0.0, 0.0, 0.0, 0.0, 0.0, 1.7151025631849585E9, 0.0, 2024-05-07 12:22:43.184
49.0, -523.8964054929093, -561.865739793051, -5.514482484664768, -330.67634423216805, 0.11200000531971455, 0.9760000463575125, 0.25600001215934753, 0.0, 0.0, 0.0, 0.0, 0.0, 1.7151025631984746E9, 0.0, 2024-05-07 12:22:43.198
49.0, -522.9165517045185, -560.5605147085153, 3.4724971088580787, -323.74630961427465, 0.11200000531971455, 0.9760000463575125, 0.25600001215934753, 0.0, 0.0, 0.0, 0.0, 0.0, 1.7151025631984746E9, 0.0, 2024-05-07 12:22:43.198
50.0, -516.5811611795798, -560.2725424119271, 4.033482102211565, -314.19086522748694, 0.11200000531971455, 0.9760000463575125, 0.27200001291930676, 0.0, 0.0, 0.0, 0.0, 0.0, 1.715102563214152E9, 0.0, 2024-05-07 12:22:43.214
50.0, -519.5431619444862, -566.4171980391257, -9.538614836987108, -321.10968014551327, 0.11200000531971455, 0.9760000463575125, 0.27200001291930676, 0.0, 0.0, 0.0, 0.0, 0.0, 1.715102563214152E9, 0.0, 2024-05-07 12:22:43.214
51.0, -518.3463939586654, -566.9407840329222, -2.3243478224612772, -324.6925043030642, 0.11200000531971455, 1.008000047877431, 0.27200001291930676, 0.0, 0.0, 0.0, 0.0, 0.0, 1.7151025632149055E9, 0.0, 2024-05-07 12:22:43.214
51.0, -534.1250318717211, -567.1576982303523, 2.3954059216193855, -311.0568290646188, 0.11200000531971455, 1.008000047877431, 0.27200001291930676, 0.0, 0.0, 0.0, 0.0, 0.0, 1.7151025632149055E9, 0.0, 2024-05-07 12:22:43.214
52.0, -536.623285042122, -564.2218767651357, -4.078360901679844, -316.6442395984195, 0.12800000607967377, 1.008000047877431, 0.27200001291930676, 0.0, 0.0, 0.0, 0.0, 0.0, 1.7151025632285852E9, 0.0, 2024-05-07 12:22:43.228
52.0, -536.6382446419448, -574.3270864454098, -14.26210848102346, -324.89071900071576, 0.12800000607967377, 1.008000047877431, 0.27200001291930676, 0.0, 0.0, 0.0, 0.0, 0.0, 1.7151025632285852E9, 0.0, 2024-05-07 12:22:43.228
53.0, -524.8500799816102, -567.112819430884, -3.704370906110853, -319.37062666611746, 0.12800000607967377, 1.008000047877431, 0.27200001291930676, 0.0, 0.0, 0.0, 0.0, 0.0, 1.7151025632443151E9, 0.0, 2024-05-07 12:22:43.244
53.0, -519.0569749502465, -560.0070095150732, -3.3191612106747925, -316.22537080338225, 0.12800000607967377, 1.008000047877431, 0.27200001291930676, 0.0, 0.0, 0.0, 0.0, 0.0, 1.7151025632443151E9, 0.0, 2024-05-07 12:22:43.244
54.0, -535.381638256833, -571.8587524746545, -10.63066562404856, -331.1101726270281, 0.12800000607967377, 1.008000047877431, 0.27200001291930676, 0.0, 0.0, 0.0, 0.0, 0.0, 1.7151025632448652E9, 0.0, 2024-05-07 12:22:43.244
54.0, -528.0551742436364, -569.6522115007974, 4.265355899464339, -320.0886874576099, 0.12800000607967377, 1.008000047877431, 0.27200001291930676, 0.0, 0.0, 0.0, 0.0, 0.0, 1.7151025632448652E9, 0.0, 2024-05-07 12:22:43.244
55.0, -518.4211919577792, -559.8798529165797, 1.2622162350453436, -313.6448398339562, 0.12800000607967377, 1.008000047877431, 0.27200001291930676, 0.0, 0.0, 0.0, 0.0, 0.0, 1.715102563258607E9, 0.0, 2024-05-07 12:22:43.258
55.0, -531.8923115981743, -575.060106836725, -6.8234474691562355, -319.36688676616177, 0.12800000607967377, 1.008000047877431, 0.27200001291930676, 0.0, 0.0, 0.0, 0.0, 0.0, 1.715102563258607E9, 0.0, 2024-05-07 12:22:43.258
56.0, -530.9348972095177, -569.1211457070895, -1.8194613284431398, -317.52311608800665, 0.12800000607967377, 1.008000047877431, 0.27200001291930676, 0.0, 0.0, 0.0, 0.0, 0.0, 1.715102563274286E9, 0.0, 2024-05-07 12:22:43.274
56.0, -532.5617536902428, -565.1718113538809, 2.7469565174542367, -310.40234657237306, 0.12800000607967377, 1.008000047877431, 0.27200001291930676, 0.0, 0.0, 0.0, 0.0, 0.0, 1.715102563274286E9, 0.0, 2024-05-07 12:22:43.274
57.0, -529.4164978275076, -576.8627386153676, -0.24870334705337882, -316.2029314036481, 0.12800000607967377, 1.008000047877431, 0.27200001291930676, 0.0, 0.0, 0.0, 0.0, 0.0, 1.715102563274836E9, 0.0, 2024-05-07 12:22:43.274
57.0, -536.5036082435399, -577.5882792067714, -5.929611379746348, -324.74860280239955, 0.12800000607967377, 1.008000047877431, 0.27200001291930676, 0.0, 0.0, 0.0, 0.0, 0.0, 1.715102563274836E9, 0.0, 2024-05-07 12:22:43.274
58.0, -524.2142969891429, -566.6715112361126, -0.3534205458126962, -314.77428962057456, 0.12800000607967377, 1.008000047877431, 0.27200001291930676, 0.0, 0.0, 0.0, 0.0, 0.0, 1.715102563288592E9, 0.0, 2024-05-07 12:22:43.288
58.0, -515.1263400968164, -559.1430926253088, 1.8306810283102095, -311.0979679641314, 0.12800000607967377, 1.008000047877431, 0.27200001291930676, 0.0, 0.0, 0.0, 0.0, 0.0, 1.715102563288592E9, 0.0, 2024-05-07 12:22:43.288
59.0, -534.9478098619729, -568.7434158115648, -9.979923031758517, -325.74341619061306, 0.12800000607967377, 1.008000047877431, 0.27200001291930676, 0.0, 0.0, 0.0, 0.0, 0.0, 1.715102563304293E9, 0.0, 2024-05-07 12:22:43.304
59.0, -519.3486871467903, -563.1634850776754, 5.675298182759434, -316.18797180382535, 0.12800000607967377, 1.008000047877431, 0.27200001291930676, 0.0, 0.0, 0.0, 0.0, 0.0, 1.715102563304293E9, 0.0, 2024-05-07 12:22:43.304
60.0, -523.9637236921117, -562.1013534902595, 4.186818000394851, -310.7277178685181, 0.12800000607967377, 1.008000047877431, 0.27200001291930676, 0.0, 0.0, 0.0, 0.0, 0.0, 1.7151025633048728E9, 0.0, 2024-05-07 12:22:43.304
60.0, -543.5794989597052, -561.6263861958869, -10.114559430163354, -321.30789484316483, 0.12800000607967377, 1.008000047877431, 0.27200001291930676, 0.0, 0.0, 0.0, 0.0, 0.0, 1.7151025633048728E9, 0.0, 2024-05-07 12:22:43.304
61.0, -524.7042238833383, -558.8812996284105, -13.312173892278224, -324.6551053035073, 0.12800000607967377, 1.008000047877431, 0.27200001291930676, 0.0, 0.0, 0.0, 0.0, 0.0, 1.7151025633184783E9, 0.0, 2024-05-07 12:22:43.318
61.0, -521.233596724458, -556.6298798550852, -2.8479338162578642, -317.0668482934125, 0.12800000607967377, 1.008000047877431, 0.27200001291930676, 0.0, 0.0, 0.0, 0.0, 0.0, 1.7151025633184783E9, 0.0, 2024-05-07 12:22:43.318
62.0, -534.8917113626376, -563.9152049687691, -3.3116814107634127, -316.505863300059, 0.11200000531971455, 1.008000047877431, 0.27200001291930676, 0.0, 0.0, 0.0, 0.0, 0.0, 1.7151025633342628E9, 0.0, 2024-05-07 12:22:43.334
62.0, -539.6114651067182, -566.7163900355808, -13.824540186207741, -330.57162703340873, 0.11200000531971455, 1.008000047877431, 0.27200001291930676, 0.0, 0.0, 0.0, 0.0, 0.0, 1.7151025633342628E9, 0.0, 2024-05-07 12:22:43.334
63.0, -525.0669941790402, -557.2058244482614, 0.6750519420020282, -315.82146160816774, 0.11200000531971455, 1.008000047877431, 0.27200001291930676, 0.0, 0.0, 0.0, 0.0, 0.0, 1.7151025633353903E9, 0.0, 2024-05-07 12:22:43.335
63.0, -525.7289564711973, -566.8846855335869, 5.8959522801451385, -314.04500912921503, 0.11200000531971455, 1.008000047877431, 0.27200001291930676, 0.0, 0.0, 0.0, 0.0, 0.0, 1.7151025633353903E9, 0.0, 2024-05-07 12:22:43.335
64.0, -534.2634081700817, -557.0711880498566, -9.228203140664846, -321.3565135425888, 0.11200000531971455, 1.008000047877431, 0.27200001291930676, 0.0, 0.0, 0.0, 0.0, 0.0, 1.7151025633486235E9, 0.0, 2024-05-07 12:22:43.348
64.0, -525.3250472759828, -557.2656628475524, 3.577214307617396, -312.48921074764803, 0.11200000531971455, 1.008000047877431, 0.27200001291930676, 0.0, 0.0, 0.0, 0.0, 0.0, 1.7151025633486235E9, 0.0, 2024-05-07 12:22:43.348
65.0, -521.5664478205144, -558.2155974362977, 1.164978836197406, -310.37616727268323, 0.11200000531971455, 1.008000047877431, 0.27200001291930676, 0.0, 0.0, 0.0, 0.0, 0.0, 1.7151025633644702E9, 0.0, 2024-05-07 12:22:43.364
65.0, -529.0312881320715, -562.0153357912786, -8.951450543943793, -320.14852585690096, 0.11200000531971455, 1.008000047877431, 0.27200001291930676, 0.0, 0.0, 0.0, 0.0, 0.0, 1.7151025633644702E9, 0.0, 2024-05-07 12:22:43.364
66.0, -536.0660399487242, -561.4618305978365, -4.874959592241794, -317.7587297852151, 0.11200000531971455, 1.008000047877431, 0.27200001291930676, 0.0, 0.0, 0.0, 0.0, 0.0, 1.7151025633649707E9, 0.0, 2024-05-07 12:22:43.364
66.0, -525.5457013733685, -557.4339583455585, 4.411211997736245, -307.4889645068906, 0.11200000531971455, 1.008000047877431, 0.27200001291930676, 0.0, 0.0, 0.0, 0.0, 0.0, 1.7151025633649707E9, 0.0, 2024-05-07 12:22:43.364
67.0, -519.7039776425809, -560.1042469139211, 3.580954207573086, -310.9745512655936, 0.11200000531971455, 1.008000047877431, 0.27200001291930676, 0.0, 0.0, 0.0, 0.0, 0.0, 1.7151025633785436E9, 0.0, 2024-05-07 12:22:43.378
67.0, -532.9843623852357, -560.9719037036411, -5.989449779037386, -318.0579217816703, 0.11200000531971455, 1.008000047877431, 0.27200001291930676, 0.0, 0.0, 0.0, 0.0, 0.0, 1.7151025633785436E9, 0.0, 2024-05-07 12:22:43.378
68.0, -532.4645162913948, -565.1905108536594, -2.2682493231259286, -311.63277365779504, 0.11200000531971455, 1.008000047877431, 0.27200001291930676, 0.0, 0.0, 0.0, 0.0, 0.0, 1.715102563394267E9, 0.0, 2024-05-07 12:22:43.394
68.0, -515.8930195877329, -560.6914112069644, 7.335813763085753, -305.5703958296217, 0.11200000531971455, 1.008000047877431, 0.27200001291930676, 0.0, 0.0, 0.0, 0.0, 0.0, 1.715102563394267E9, 0.0, 2024-05-07 12:22:43.394
69.0, -526.5966132609174, -564.8913188572042, -6.6626317710615695, -323.03572862269357, 0.11200000531971455, 1.008000047877431, 0.27200001291930676, 0.0, 0.0, 0.0, 0.0, 0.0, 1.7151025633950038E9, 0.0, 2024-05-07 12:22:43.395
69.0, -529.3940584277734, -565.2727886526845, 0.3010619464330375, -311.4270791602321, 0.11200000531971455, 1.008000047877431, 0.27200001291930676, 0.0, 0.0, 0.0, 0.0, 0.0, 1.7151025633950038E9, 0.0, 2024-05-07 12:22:43.395
70.0, -521.7684024181217, -563.0812072786503, 0.16642554802820086, -310.30136927356943, 0.11200000531971455, 1.008000047877431, 0.2240000106394291, 0.0, 0.0, 0.0, 0.0, 0.0, 1.7151025634087992E9, 0.0, 2024-05-07 12:22:43.408
70.0, -532.3074404932559, -566.787448134739, -0.14398614829406142, -316.6928582978435, 0.11200000531971455, 1.008000047877431, 0.2240000106394291, 0.0, 0.0, 0.0, 0.0, 0.0, 1.7151025634087992E9, 0.0, 2024-05-07 12:22:43.408
71.0, -534.9253704622388, -569.0800068075769, -4.508449396584183, -318.3907728777267, 0.11200000531971455, 1.008000047877431, 0.2240000106394291, 0.0, 0.0, 0.0, 0.0, 0.0, 1.7151025634242404E9, 0.0, 2024-05-07 12:22:43.424
71.0, -526.0206686677411, -557.2432234478183, -4.994636390823871, -308.58849509386346, 0.11200000531971455, 1.008000047877431, 0.2240000106394291, 0.0, 0.0, 0.0, 0.0, 0.0, 1.7151025634242404E9, 0.0, 2024-05-07 12:22:43.424
72.0, -514.3634005058557, -564.0386216673069, 8.035175054799765, -309.55338928243145, 0.11200000531971455, 1.008000047877431, 0.2240000106394291, 0.0, 0.0, 0.0, 0.0, 0.0, 1.7151025634248352E9, 0.0, 2024-05-07 12:22:43.424
72.0, -519.6067402437329, -567.1950972299092, 17.90103113790974, -318.7198840738274, 0.11200000531971455, 1.008000047877431, 0.2240000106394291, 0.0, 0.0, 0.0, 0.0, 0.0, 1.7151025634248352E9, 0.0, 2024-05-07 12:22:43.424
73.0, -499.88624777738005, -552.0933812088333, 33.90032314835116, -299.0068714073859, 0.11200000531971455, 1.008000047877431, 0.2240000106394291, 0.0, 0.0, 0.0, 0.0, 0.0, 1.7151025634386194E9, 0.0, 2024-05-07 12:22:43.438
73.0, -493.0571904582903, -561.5104492972605, 46.02133890474215, -297.1593608292751, 0.11200000531971455, 1.008000047877431, 0.2240000106394291, 0.0, 0.0, 0.0, 0.0, 0.0, 1.7151025634386194E9, 0.0, 2024-05-07 12:22:43.438
74.0, -507.99435088131577, -562.6398990838788, 35.781492826063186, -310.1704727751203, 0.11200000531971455, 1.008000047877431, 0.2240000106394291, 0.0, 0.0, 0.0, 0.0, 0.0, 1.7151025634542696E9, 0.0, 2024-05-07 12:22:43.454
74.0, -490.8955282839015, -551.1247471203096, 48.51585217518732, -290.76787180500105, 0.11200000531971455, 1.008000047877431, 0.2240000106394291, 0.0, 0.0, 0.0, 0.0, 0.0, 1.7151025634542696E9, 0.0, 2024-05-07 12:22:43.454
75.0, -481.57943749427795, -563.0587678789161, 54.61562900291756, -298.65532081155106, 0.11200000531971455, 1.008000047877431, 0.2240000106394291, 0.0, 0.0, 0.0, 0.0, 0.0, 1.715102563454826E9, 0.0, 2024-05-07 12:22:43.454
75.0, -486.06731744110584, -575.2358821346425, 38.12267019832507, -309.7890029796399, 0.11200000531971455, 1.008000047877431, 0.2240000106394291, 0.0, 0.0, 0.0, 0.0, 0.0, 1.715102563454826E9, 0.0, 2024-05-07 12:22:43.454
76.0, -498.8315959898755, -565.7589756469242, 44.81335121905431, -306.206178822089, 0.11200000531971455, 1.008000047877431, 0.2240000106394291, 0.0, 0.0, 0.0, 0.0, 0.0, 1.715102563468626E9, 0.0, 2024-05-07 12:22:43.468
76.0, -491.50513197667897, -556.8318344526924, 48.9309810702689, -296.1944666407071, 0.11200000531971455, 1.008000047877431, 0.2240000106394291, 0.0, 0.0, 0.0, 0.0, 0.0, 1.715102563468626E9, 0.0, 2024-05-07 12:22:43.468
77.0, -502.2049857499078, -557.9650241392665, 36.72768751485273, -303.70044585177675, 0.11200000531971455, 1.008000047877431, 0.2240000106394291, 0.0, 0.0, 0.0, 0.0, 0.0, 1.7151025635007958E9, 0.0, 2024-05-07 12:22:43.500
77.0, -522.838013805449, -557.6882715425454, 22.6955828811042, -306.7596840155311, 0.11200000531971455, 1.008000047877431, 0.2240000106394291, 0.0, 0.0, 0.0, 0.0, 0.0, 1.7151025635007958E9, 0.0, 2024-05-07 12:22:43.500
78.0, -521.005462827161, -557.4302184456028, 35.388803330715746, -296.29544393951073, 0.11200000531971455, 1.008000047877431, 0.2240000106394291, 0.0, 0.0, 0.0, 0.0, 0.0, 1.7151025635013084E9, 0.0, 2024-05-07 12:22:43.501
78.0, -514.8121885005385, -564.5958667607047, 18.850965726654977, -298.81613650964573, 0.11200000531971455, 1.008000047877431, 0.2240000106394291, 0.0, 0.0, 0.0, 0.0, 0.0, 1.7151025635013084E9, 0.0, 2024-05-07 12:22:43.501
79.0, -530.0709803197533, -565.1269325544126, 7.85939975688234, -315.0921811168082, 0.11200000531971455, 1.008000047877431, 0.2240000106394291, 0.0, 0.0, 0.0, 0.0, 0.0, 1.715102563502038E9, 0.0, 2024-05-07 12:22:43.502
79.0, -522.8492335053161, -564.1769979656674, 14.886671773623675, -309.32525538513437, 0.11200000531971455, 1.008000047877431, 0.2240000106394291, 0.0, 0.0, 0.0, 0.0, 0.0, 1.715102563502038E9, 0.0, 2024-05-07 12:22:43.502
80.0, -516.674658678472, -565.7477559470572, 11.977029608096927, -300.4616924901493, 0.11200000531971455, 1.008000047877431, 0.2400000113993883, 0.0, 0.0, 0.0, 0.0, 0.0, 1.7151025635027435E9, 0.0, 2024-05-07 12:22:43.502
80.0, -534.7832542639226, -571.297767481301, -1.486610232386738, -315.63072671042755, 0.11200000531971455, 1.008000047877431, 0.2400000113993883, 0.0, 0.0, 0.0, 0.0, 0.0, 1.7151025635027435E9, 0.0, 2024-05-07 12:22:43.502
81.0, -537.6928964294493, -559.0533350263722, -3.132166212890297, -310.58934157015756, 0.11200000531971455, 1.008000047877431, 0.2400000113993883, 0.0, 0.0, 0.0, 0.0, 0.0, 1.7151025635135472E9, 0.0, 2024-05-07 12:22:43.513
81.0, -528.7919345349073, -567.4643700267188, 5.675298182759434, -301.8566751736216, 0.11200000531971455, 1.008000047877431, 0.2400000113993883, 0.0, 0.0, 0.0, 0.0, 0.0, 1.7151025635135472E9, 0.0, 2024-05-07 12:22:43.513
82.0, -539.686263105832, -564.158298465889, 5.140492489095777, -310.92967246612534, 0.11200000531971455, 1.008000047877431, 0.2400000113993883, 0.0, 0.0, 0.0, 0.0, 0.0, 1.7151025635448537E9, 0.0, 2024-05-07 12:22:43.544
82.0, -543.5196605604142, -566.3685793397017, -10.941077320370823, -328.08833346283063, 0.11200000531971455, 1.008000047877431, 0.2400000113993883, 0.0, 0.0, 0.0, 0.0, 0.0, 1.7151025635448537E9, 0.0, 2024-05-07 12:22:43.544
83.0, -521.0989603260532, -566.7762284348719, 6.053028078284115, -307.5338433063589, 0.11200000531971455, 1.008000047877431, 0.2400000113993883, 0.0, 0.0, 0.0, 0.0, 0.0, 1.7151025635457013E9, 0.0, 2024-05-07 12:22:43.545
83.0, -528.9003916336223, -571.1818305826746, -7.219876864459366, -316.21789100347087, 0.11200000531971455, 1.008000047877431, 0.2400000113993883, 0.0, 0.0, 0.0, 0.0, 0.0, 1.7151025635457013E9, 0.0, 2024-05-07 12:22:43.545
84.0, -544.5069941487163, -569.7157898000441, -18.70136972842738, -325.15999179752544, 0.11200000531971455, 1.008000047877431, 0.2400000113993883, 0.0, 0.0, 0.0, 0.0, 0.0, 1.7151025635462835E9, 0.0, 2024-05-07 12:22:43.546
84.0, -538.5156744197011, -562.819414281752, -1.4828703324310482, -315.8999995072372, 0.11200000531971455, 1.008000047877431, 0.2400000113993883, 0.0, 0.0, 0.0, 0.0, 0.0, 1.7151025635462835E9, 0.0, 2024-05-07 12:22:43.546
85.0, -533.8071403754875, -566.750049135182, -2.3991458215750754, -308.3828005963005, 0.11200000531971455, 1.008000047877431, 0.2400000113993883, 0.0, 0.0, 0.0, 0.0, 0.0, 1.7151025635585132E9, 0.0, 2024-05-07 12:22:43.558
85.0, -532.0007686968893, -562.2920883879997, -3.7193305059336126, -318.04670208180323, 0.11200000531971455, 1.008000047877431, 0.2400000113993883, 0.0, 0.0, 0.0, 0.0, 0.0, 1.7151025635585132E9, 0.0, 2024-05-07 12:22:43.558
86.0, -540.8119729924947, -559.490903321188, -5.230250088032335, -321.52106914063916, 0.11200000531971455, 1.008000047877431, 0.2400000113993883, 0.0, 0.0, 0.0, 0.0, 0.0, 1.7151025635741274E9, 0.0, 2024-05-07 12:22:43.574
86.0, -533.1825770828873, -569.5437544020824, -9.205763740930706, -310.8361749672331, 0.11200000531971455, 1.008000047877431, 0.2400000113993883, 0.0, 0.0, 0.0, 0.0, 0.0, 1.7151025635741274E9, 0.0, 2024-05-07 12:22:43.574
87.0, -543.1830695644021, -566.907124933321, -12.29492110433057, -319.5426620640792, 0.11200000531971455, 1.008000047877431, 0.2400000113993883, 0.0, 0.0, 0.0, 0.0, 0.0, 1.715102563574878E9, 0.0, 2024-05-07 12:22:43.574
87.0, -538.2538814228028, -563.1111264782958, -17.16801074659452, -327.4301110706292, 0.11200000531971455, 1.008000047877431, 0.2400000113993883, 0.0, 0.0, 0.0, 0.0, 0.0, 1.715102563574878E9, 0.0, 2024-05-07 12:22:43.574
88.0, -523.8552665933967, -563.5112957735546, -10.327733727637678, -318.93305837130174, 0.11200000531971455, 1.008000047877431, 0.2400000113993883, 0.0, 0.0, 0.0, 0.0, 0.0, 1.715102563588549E9, 0.0, 2024-05-07 12:22:43.588
88.0, -525.5457013733685, -557.5760745438747, -5.256429387722164, -313.4204458366148, 0.11200000531971455, 1.008000047877431, 0.2400000113993883, 0.0, 0.0, 0.0, 0.0, 0.0, 1.715102563588549E9, 0.0, 2024-05-07 12:22:43.588
89.0, -542.8352588685229, -561.5216689971276, -14.490242378320545, -328.89241195330396, 0.11200000531971455, 1.008000047877431, 0.2400000113993883, 0.0, 0.0, 0.0, 0.0, 0.0, 1.7151025636041992E9, 0.0, 2024-05-07 12:22:43.604
89.0, -528.3356667403132, -562.830633981619, -5.701477482449263, -313.6523196338676, 0.11200000531971455, 1.008000047877431, 0.2400000113993883, 0.0, 0.0, 0.0, 0.0, 0.0, 1.7151025636041992E9, 0.0, 2024-05-07 12:22:43.604
90.0, -524.3900722870603, -558.0921807377599, -1.131319736596197, -310.22283137449995, 0.11200000531971455, 1.008000047877431, 0.2240000106394291, 0.0, 0.0, 0.0, 0.0, 0.0, 1.7151025636050415E9, 0.0, 2024-05-07 12:22:43.605
90.0, -536.0660399487242, -569.0575674078427, -13.656244688201696, -325.03657509898767, 0.11200000531971455, 1.008000047877431, 0.2240000106394291, 0.0, 0.0, 0.0, 0.0, 0.0, 1.7151025636050415E9, 0.0, 2024-05-07 12:22:43.605
91.0, -534.416744068265, -569.8092872989364, -11.225309717003256, -324.92437810031697, 0.11200000531971455, 1.008000047877431, 0.2240000106394291, 0.0, 0.0, 0.0, 0.0, 0.0, 1.715102563618575E9, 0.0, 2024-05-07 12:22:43.618
91.0, -529.7306494237855, -560.0107494150288, -10.623185824137181, -318.22995717963204, 0.11200000531971455, 1.008000047877431, 0.2240000106394291, 0.0, 0.0, 0.0, 0.0, 0.0, 1.715102563618575E9, 0.0, 2024-05-07 12:22:43.618
92.0, -529.3155205287039, -560.8297875053249, -7.657445159275085, -318.5067097763531, 0.11200000531971455, 1.008000047877431, 0.2240000106394291, 0.0, 0.0, 0.0, 0.0, 0.0, 1.7151025636342263E9, 0.0, 2024-05-07 12:22:43.634
92.0, -542.2705339752138, -566.9482638328336, -11.393605215009302, -324.7224235027097, 0.11200000531971455, 1.008000047877431, 0.2240000106394291, 0.0, 0.0, 0.0, 0.0, 0.0, 1.7151025636342263E9, 0.0, 2024-05-07 12:22:43.634
93.0, -525.2951280763373, -559.0608148262836, -0.1327664484269917, -311.6178140579723, 0.11200000531971455, 1.008000047877431, 0.2240000106394291, 0.0, 0.0, 0.0, 0.0, 0.0, 1.7151025636350489E9, 0.0, 2024-05-07 12:22:43.635
93.0, -521.4093720223755, -553.2490102951415, -1.2248172354884446, -303.3937740554102, 0.11200000531971455, 1.008000047877431, 0.2240000106394291, 0.0, 0.0, 0.0, 0.0, 0.0, 1.7151025636350489E9, 0.0, 2024-05-07 12:22:43.635
94.0, -538.7737275166437, -567.8682792219333, -16.75662175146863, -321.03488214639947, 0.11200000531971455, 1.008000047877431, 0.2240000106394291, 0.0, 0.0, 0.0, 0.0, 0.0, 1.71510256364846E9, 0.0, 2024-05-07 12:22:43.648
94.0, -534.2559283701703, -559.5245624207892, 0.9518045387230814, -306.2360980217345, 0.11200000531971455, 1.008000047877431, 0.2240000106394291, 0.0, 0.0, 0.0, 0.0, 0.0, 1.71510256364846E9, 0.0, 2024-05-07 12:22:43.648
95.0, -533.7398221762851, -560.298721711617, -0.9966833381913602, -306.6026082173921, 0.11200000531971455, 1.008000047877431, 0.2240000106394291, 0.0, 0.0, 0.0, 0.0, 0.0, 1.7151025636643531E9, 0.0, 2024-05-07 12:22:43.664
95.0, -544.1554435528815, -572.2065631705336, -17.182970346417278, -321.41261204192415, 0.11200000531971455, 1.008000047877431, 0.2240000106394291, 0.0, 0.0, 0.0, 0.0, 0.0, 1.7151025636643531E9, 0.0, 2024-05-07 12:22:43.664
96.0, -536.1109187481925, -570.0262014963664, -8.001515955198556, -323.71265051467344, 0.11200000531971455, 1.008000047877431, 0.2240000106394291, 0.0, 0.0, 0.0, 0.0, 0.0, 1.715102563665012E9, 0.0, 2024-05-07 12:22:43.665
96.0, -525.9907494680956, -569.6746509005316, -5.080654089804739, -313.6897186334245, 0.11200000531971455, 1.008000047877431, 0.2240000106394291, 0.0, 0.0, 0.0, 0.0, 0.0, 1.715102563665012E9, 0.0, 2024-05-07 12:22:43.665
97.0, -531.4173443038017, -571.1780906827189, -0.013089649844914675, -312.93425884237513, 0.11200000531971455, 1.008000047877431, 0.2240000106394291, 0.0, 0.0, 0.0, 0.0, 0.0, 1.7151025636787167E9, 0.0, 2024-05-07 12:22:43.678
97.0, -530.7479022117332, -569.102446207311, -13.798360886517912, -317.1229467927478, 0.11200000531971455, 1.008000047877431, 0.2240000106394291, 0.0, 0.0, 0.0, 0.0, 0.0, 1.7151025636787167E9, 0.0, 2024-05-07 12:22:43.678
98.0, -520.6202531317249, -561.3982522985898, -4.830080792773515, -305.67137312842533, 0.11200000531971455, 1.008000047877431, 0.2240000106394291, 0.0, 0.0, 0.0, 0.0, 0.0, 1.7151025636943185E9, 0.0, 2024-05-07 12:22:43.694
98.0, -510.6908187493682, -565.6467786482535, 18.129165035206825, -305.6451938287355, 0.11200000531971455, 1.008000047877431, 0.2240000106394291, 0.0, 0.0, 0.0, 0.0, 0.0, 1.7151025636943185E9, 0.0, 2024-05-07 12:22:43.694
99.0, -511.3153820419684, -563.253242676612, 23.335105773527175, -314.77802952053025, 0.11200000531971455, 1.008000047877431, 0.2240000106394291, 0.0, 0.0, 0.0, 0.0, 0.0, 1.7151025636949303E9, 0.0, 2024-05-07 12:22:43.694
99.0, -497.73580530285835, -560.4894566093571, 39.61115038068965, -300.5364904892631, 0.11200000531971455, 1.008000047877431, 0.2240000106394291, 0.0, 0.0, 0.0, 0.0, 0.0, 1.7151025636949303E9, 0.0, 2024-05-07 12:22:43.694
100.0, -492.746778761968, -571.6193988774903, 45.38929581223056, -300.03908379515633, 0.11200000531971455, 1.008000047877431, 0.2240000106394291, 0.0, 0.0, 0.0, 0.0, 0.0, 1.7151025637093413E9, 0.0, 2024-05-07 12:22:43.709
100.0, -499.7553512789309, -570.0037620966323, 46.16345510305837, -309.28785638557747, 0.11200000531971455, 1.008000047877431, 0.2240000106394291, 0.0, 0.0, 0.0, 0.0, 0.0, 1.7151025637093413E9, 0.0, 2024-05-07 12:22:43.709
0.0, -506.30952595127746, -568.0964131192304, 34.46878794161603, -312.65189639572054, 0.11200000531971455, 1.008000047877431, 0.2240000106394291, 0.0, 0.0, 0.0, 0.0, 0.0, 1.715102563709902E9, 0.0, 2024-05-07 12:22:43.709
1.0, -498.65021084202453, -573.347232657019, 40.202054573688656, -311.38781021069735, 0.11200000531971455, 0.9760000463575125, 0.2240000106394291, 0.0, 0.0, 0.0, 0.0, 0.0, 1.7151025637235248E9, 0.0, 2024-05-07 12:22:43.723
1.0, -500.87171141570434, -564.7641622587107, 34.240654044318944, -305.72560167778283, 0.11200000531971455, 0.9760000463575125, 0.2240000106394291, 0.0, 0.0, 0.0, 0.0, 0.0, 1.7151025637235248E9, 0.0, 2024-05-07 12:22:43.723
2.0, -509.7801531101577, -564.6931041595526, 25.90441704308614, -317.5511653376743, 0.12800000607967377, 0.9760000463575125, 0.2240000106394291, 0.0, 0.0, 0.0, 0.0, 0.0, 1.7151025637392168E9, 0.0, 2024-05-07 12:22:43.739
2.0, -496.582046166528, -566.6827309359796, 35.26538663217798, -302.6551438141614, 0.12800000607967377, 0.9760000463575125, 0.2240000106394291, 0.0, 0.0, 0.0, 0.0, 0.0, 1.7151025637392168E9, 0.0, 2024-05-07 12:22:43.739
3.0, -508.6731427232735, -566.3274404401891, 30.650350086856633, -302.20635581947863, 0.12800000607967377, 0.9760000463575125, 0.2240000106394291, 0.0, 0.0, 0.0, 0.0, 0.0, 1.7151025637399354E9, 0.0, 2024-05-07 12:22:43.739
3.0, -518.0789911118336, -565.942230744753, 16.966056148987263, -316.69472824782133, 0.12800000607967377, 0.9760000463575125, 0.2240000106394291, 0.0, 0.0, 0.0, 0.0, 0.0, 1.7151025637399354E9, 0.0, 2024-05-07 12:22:43.739
4.0, -508.9349357201718, -567.486809426453, 13.630065388511866, -308.2537740478292, 0.12800000607967377, 0.9760000463575125, 0.2240000106394291, 0.0, 0.0, 0.0, 0.0, 0.0, 1.715102563753448E9, 0.0, 2024-05-07 12:22:43.753
4.0, -512.4616613783874, -568.9790295087732, 16.539707554038614, -302.8009999124333, 0.12800000607967377, 0.9760000463575125, 0.2240000106394291, 0.0, 0.0, 0.0, 0.0, 0.0, 1.715102563753448E9, 0.0, 2024-05-07 12:22:43.753
5.0, -521.8824693667702, -569.0014689085074, 8.835513645317405, -311.7468406064436, 0.12800000607967377, 0.9760000463575125, 0.2240000106394291, 0.0, 0.0, 0.0, 0.0, 0.0, 1.715102563769316E9, 0.0, 2024-05-07 12:22:43.769
5.0, -525.8355436199345, -570.6283253892325, -3.786648705136031, -315.5241395616904, 0.12800000607967377, 0.9760000463575125, 0.2240000106394291, 0.0, 0.0, 0.0, 0.0, 0.0, 1.715102563769316E9, 0.0, 2024-05-07 12:22:43.769
6.0, -526.4638468124904, -578.0071480018087, 3.2705425112508237, -308.4706882452592, 0.12800000607967377, 0.9760000463575125, 0.2240000106394291, 0.0, 0.0, 0.0, 0.0, 0.0, 1.715102563769931E9, 0.0, 2024-05-07 12:22:43.769
6.0, -527.204347003717, -576.881438115146, -4.1269796011038125, -307.79002645332366, 0.12800000607967377, 0.9760000463575125, 0.2240000106394291, 0.0, 0.0, 0.0, 0.0, 0.0, 1.715102563769931E9, 0.0, 2024-05-07 12:22:43.769
7.0, -542.6314343209378, -572.0794065720402, -13.47298959037289, -320.8983757980168, 0.12800000607967377, 0.9760000463575125, 0.2240000106394291, 0.0, 0.0, 0.0, 0.0, 0.0, 1.715102563784052E9, 0.0, 2024-05-07 12:22:43.784
7.0, -531.4790526530705, -570.7106031882577, 0.9555444386787713, -309.53655973263085, 0.12800000607967377, 0.9760000463575125, 0.2240000106394291, 0.0, 0.0, 0.0, 0.0, 0.0, 1.715102563784052E9, 0.0, 2024-05-07 12:22:43.784
8.0, -530.7123731621541, -577.5508802072145, -5.507002684753388, -305.2207151837647, 0.12800000607967377, 0.9760000463575125, 0.2240000106394291, 0.0, 0.0, 0.0, 0.0, 0.0, 1.7151025637990963E9, 0.0, 2024-05-07 12:22:43.799
8.0, -549.2173981429078, -572.7413688641973, -17.14183144690469, -321.9305881857872, 0.12800000607967377, 0.9760000463575125, 0.2240000106394291, 0.0, 0.0, 0.0, 0.0, 0.0, 1.7151025637990963E9, 0.0, 2024-05-07 12:22:43.799
9.0, -539.5273173577152, -565.4149048510008, -13.297214292455465, -304.5624927915633, 0.12800000607967377, 0.9760000463575125, 0.2240000106394291, 0.0, 0.0, 0.0, 0.0, 0.0, 1.715102563799867E9, 0.0, 2024-05-07 12:22:43.799
9.0, -549.359514341224, -571.3239467809908, -15.07366677140817, -310.3406382231042, 0.12800000607967377, 0.9760000463575125, 0.2240000106394291, 0.0, 0.0, 0.0, 0.0, 0.0, 1.715102563799867E9, 0.0, 2024-05-07 12:22:43.799
10.0, -570.0449009961449, -567.4942892263643, -24.37479796120897, -318.79655202291906, 0.12800000607967377, 0.9760000463575125, 0.288000013679266, 0.0, 0.0, 0.0, 0.0, 0.0, 1.7151025638134425E9, 0.0, 2024-05-07 12:22:43.813
10.0, -529.302430878859, -578.3998374971561, -19.251135021913797, -323.87159626279026, 0.12800000607967377, 0.9760000463575125, 0.288000013679266, 0.0, 0.0, 0.0, 0.0, 0.0, 1.7151025638134425E9, 0.0, 2024-05-07 12:22:43.813
11.0, -525.4054551250301, -583.4935812368058, -18.787387427408248, -306.26788717135787, 0.12800000607967377, 0.9760000463575125, 0.288000013679266, 0.0, 0.0, 0.0, 0.0, 0.0, 1.715102563829476E9, 0.0, 2024-05-07 12:22:43.829
11.0, -531.7445855499245, -583.0784523417242, -13.588926488999277, -317.1135970428586, 0.12800000607967377, 0.9760000463575125, 0.288000013679266, 0.0, 0.0, 0.0, 0.0, 0.0, 1.715102563829476E9, 0.0, 2024-05-07 12:22:43.829
12.0, -541.700199231971, -581.3431387622841, -18.495675230864435, -334.077783241868, 0.12800000607967377, 0.9760000463575125, 0.288000013679266, 0.0, 0.0, 0.0, 0.0, 0.0, 1.715102563829851E9, 0.0, 2024-05-07 12:22:43.829
12.0, -528.4160745893605, -572.3598990687169, -14.385525179561228, -312.5097801974043, 0.12800000607967377, 0.9760000463575125, 0.288000013679266, 0.0, 0.0, 0.0, 0.0, 0.0, 1.715102563829851E9, 0.0, 2024-05-07 12:22:43.829
13.0, -539.059829863254, -569.4913958027028, -9.000069243367761, -307.76010725367814, 0.12800000607967377, 0.9760000463575125, 0.288000013679266, 0.0, 0.0, 0.0, 0.0, 0.0, 1.7151025638435001E9, 0.0, 2024-05-07 12:22:43.843
13.0, -535.4283870062791, -568.4105647155084, -19.254874921869487, -323.95387406181544, 0.12800000607967377, 0.9760000463575125, 0.288000013679266, 0.0, 0.0, 0.0, 0.0, 0.0, 1.7151025638435001E9, 0.0, 2024-05-07 12:22:43.843
14.0, -525.225939927157, -575.9539429261349, -6.898245468270034, -312.6257170960307, 0.12800000607967377, 0.9760000463575125, 0.288000013679266, 0.0, 0.0, 0.0, 0.0, 0.0, 1.7151025638592815E9, 0.0, 2024-05-07 12:22:43.859
14.0, -521.0222923769616, -573.9418767499737, 2.3580069220624864, -306.9261095635593, 0.12800000607967377, 0.9760000463575125, 0.288000013679266, 0.0, 0.0, 0.0, 0.0, 0.0, 1.7151025638592815E9, 0.0, 2024-05-07 12:22:43.859
15.0, -531.075143457856, -576.9487563143484, -1.449211232829839, -309.9292492279783, 0.12800000607967377, 0.9760000463575125, 0.288000013679266, 0.0, 0.0, 0.0, 0.0, 0.0, 1.7151025638598852E9, 0.0, 2024-05-07 12:22:43.859
15.0, -520.1321961875074, -576.182076823432, 10.974736419972032, -309.68615573085845, 0.12800000607967377, 0.9760000463575125, 0.288000013679266, 0.0, 0.0, 0.0, 0.0, 0.0, 1.7151025638598852E9, 0.0, 2024-05-07 12:22:43.859
16.0, -512.1063708825968, -566.2227232414298, 22.224355486687273, -305.1010383851826, 0.12800000607967377, 0.9760000463575125, 0.288000013679266, 0.0, 0.0, 0.0, 0.0, 0.0, 1.7151025638734844E9, 0.0, 2024-05-07 12:22:43.873
16.0, -516.0370057360269, -569.3231003046967, 23.96340896608308, -298.22710226662457, 0.12800000607967377, 0.9760000463575125, 0.288000013679266, 0.0, 0.0, 0.0, 0.0, 0.0, 1.7151025638734844E9, 0.0, 2024-05-07 12:22:43.873
17.0, -529.627802175004, -564.8314804579131, 12.956883396487683, -312.61075749620795, 0.12800000607967377, 0.9760000463575125, 0.288000013679266, 0.0, 0.0, 0.0, 0.0, 0.0, 1.7151025638893003E9, 0.0, 2024-05-07 12:22:43.889
17.0, -502.2292950996198, -571.6044392776676, 25.90067714313045, -298.67589026130736, 0.12800000607967377, 0.9760000463575125, 0.288000013679266, 0.0, 0.0, 0.0, 0.0, 0.0, 1.7151025638893003E9, 0.0, 2024-05-07 12:22:43.889
18.0, -506.50400074897334, -564.6856243596412, 32.27346666762605, -293.71304302010685, 0.12800000607967377, 0.9760000463575125, 0.288000013679266, 0.0, 0.0, 0.0, 0.0, 0.0, 1.7151025638899848E9, 0.0, 2024-05-07 12:22:43.889
18.0, -526.3142508142628, -574.4542430439033, 21.394097696524113, -308.4482488455251, 0.12800000607967377, 0.9760000463575125, 0.288000013679266, 0.0, 0.0, 0.0, 0.0, 0.0, 1.7151025638899848E9, 0.0, 2024-05-07 12:22:43.889
19.0, -523.7524193446152, -571.8886716743, 29.18430930422619, -305.19453588407487, 0.12800000607967377, 0.9760000463575125, 0.288000013679266, 0.0, 0.0, 0.0, 0.0, 0.0, 1.715102563903503E9, 0.0, 2024-05-07 12:22:43.903
19.0, -516.4184755315073, -572.9246239620261, 31.1814158805646, -288.6604381799698, 0.12800000607967377, 0.9760000463575125, 0.288000013679266, 0.0, 0.0, 0.0, 0.0, 0.0, 1.715102563903503E9, 0.0, 2024-05-07 12:22:43.903
20.0, -520.7343200803734, -570.8601991864853, 26.087672140914947, -296.581546286121, 0.12800000607967377, 0.9760000463575125, 0.27200001291930676, 0.0, 0.0, 0.0, 0.0, 0.0, 1.71510256391918E9, 0.0, 2024-05-07 12:22:43.919
20.0, -527.3651627018116, -572.8685254626907, 28.79535970883444, -299.79038044810295, 0.12800000607967377, 0.9760000463575125, 0.27200001291930676, 0.0, 0.0, 0.0, 0.0, 0.0, 1.71510256391918E9, 0.0, 2024-05-07 12:22:43.919
21.0, -509.234127716627, -578.268940998707, 34.12471714569256, -296.4282103879377, 0.12800000607967377, 1.008000047877431, 0.27200001291930676, 0.0, 0.0, 0.0, 0.0, 0.0, 1.7151025639198923E9, 0.0, 2024-05-07 12:22:43.919
21.0, -517.230033821892, -567.1988371298648, 24.30747976200655, -288.5445012813434, 0.12800000607967377, 1.008000047877431, 0.27200001291930676, 0.0, 0.0, 0.0, 0.0, 0.0, 1.7151025639198923E9, 0.0, 2024-05-07 12:22:43.919
22.0, -531.9764593471773, -568.5078021143563, 4.362593298312277, -299.75298144854605, 0.09600000455975533, 1.008000047877431, 0.27200001291930676, 0.0, 0.0, 0.0, 0.0, 0.0, 1.7151025639335597E9, 0.0, 2024-05-07 12:22:43.933
22.0, -524.4966594357975, -566.0731272432022, 30.4035166897811, -293.34653282444924, 0.09600000455975533, 1.008000047877431, 0.27200001291930676, 0.0, 0.0, 0.0, 0.0, 0.0, 1.7151025639335597E9, 0.0, 2024-05-07 12:22:43.933
23.0, -521.5683177704923, -574.6412380416878, 29.887410495895892, -291.08015345130116, 0.09600000455975533, 1.008000047877431, 0.27200001291930676, 0.0, 0.0, 0.0, 0.0, 0.0, 1.715102563949318E9, 0.0, 2024-05-07 12:22:43.949
23.0, -518.8980292021297, -579.1552972882055, 13.121438994538039, -304.79062668886036, 0.09600000455975533, 1.008000047877431, 0.27200001291930676, 0.0, 0.0, 0.0, 0.0, 0.0, 1.715102563949318E9, 0.0, 2024-05-07 12:22:43.949
24.0, -519.425355095882, -571.9896489731036, 21.91020389040932, -293.2605151254684, 0.09600000455975533, 1.008000047877431, 0.27200001291930676, 0.0, 0.0, 0.0, 0.0, 0.0, 1.7151025639499295E9, 0.0, 2024-05-07 12:22:43.949
24.0, -518.3146048090421, -570.826540086884, 23.062093076761812, -292.14976483862847, 0.09600000455975533, 1.008000047877431, 0.27200001291930676, 0.0, 0.0, 0.0, 0.0, 0.0, 1.7151025639499295E9, 0.0, 2024-05-07 12:22:43.949
25.0, -544.3517883005552, -570.1608378947712, 5.402285485994071, -305.56478597968817, 0.09600000455975533, 1.008000047877431, 0.27200001291930676, 0.0, 0.0, 0.0, 0.0, 0.0, 1.7151025639637043E9, 0.0, 2024-05-07 12:22:43.963
25.0, -532.2158129443415, -574.7384754405357, 8.098753354046494, -298.30190026573837, 0.09600000455975533, 1.008000047877431, 0.27200001291930676, 0.0, 0.0, 0.0, 0.0, 0.0, 1.7151025639637043E9, 0.0, 2024-05-07 12:22:43.963
26.0, -512.0091334837489, -574.6973365410231, 4.852520192507654, -293.34653282444924, 0.09600000455975533, 1.008000047877431, 0.27200001291930676, 0.0, 0.0, 0.0, 0.0, 0.0, 1.7151025639796724E9, 0.0, 2024-05-07 12:22:43.979
26.0, -518.243546709884, -565.3700260515325, 2.694597918074578, -298.22710226662457, 0.09600000455975533, 1.008000047877431, 0.27200001291930676, 0.0, 0.0, 0.0, 0.0, 0.0, 1.7151025639796724E9, 0.0, 2024-05-07 12:22:43.979
27.0, -537.4778521819972, -577.1320114121772, -7.429311261978, -315.299745564349, 0.09600000455975533, 1.008000047877431, 0.27200001291930676, 0.0, 0.0, 0.0, 0.0, 0.0, 1.7151025639798343E9, 0.0, 2024-05-07 12:22:43.979
27.0, -537.1188217862509, -575.6734504294582, 0.686271641869098, -305.04867978580296, 0.09600000455975533, 1.008000047877431, 0.27200001291930676, 0.0, 0.0, 0.0, 0.0, 0.0, 1.7151025639798343E9, 0.0, 2024-05-07 12:22:43.979
28.0, -517.5404455182143, -572.0681868721731, 0.723670641425997, -309.8469714289531, 0.09600000455975533, 1.008000047877431, 0.27200001291930676, 0.0, 0.0, 0.0, 0.0, 0.0, 1.7151025639935956E9, 0.0, 2024-05-07 12:22:43.993
28.0, -533.7454320262186, -576.4887486197986, -2.8853328158147633, -321.9380679856986, 0.09600000455975533, 1.008000047877431, 0.27200001291930676, 0.0, 0.0, 0.0, 0.0, 0.0, 1.7151025639935956E9, 0.0, 2024-05-07 12:22:43.993
29.0, -526.5423847115599, -568.1338121187873, 1.00416313810274, -305.57600567955524, 0.09600000455975533, 1.008000047877431, 0.27200001291930676, 0.0, 0.0, 0.0, 0.0, 0.0, 1.7151025640093143E9, 0.0, 2024-05-07 12:22:44.009
29.0, -524.6200761343352, -565.8898721453734, -1.5427087317220867, -309.06159243825823, 0.09600000455975533, 1.008000047877431, 0.27200001291930676, 0.0, 0.0, 0.0, 0.0, 0.0, 1.7151025640093143E9, 0.0, 2024-05-07 12:22:44.009
30.0, -532.3392296428792, -568.8406532104127, -12.444517102558166, -313.9309421805665, 0.09600000455975533, 1.008000047877431, 0.27200001291930676, 0.0, 0.0, 0.0, 0.0, 0.0, 1.7151025640098534E9, 0.0, 2024-05-07 12:22:44.009
30.0, -536.9019075888209, -568.6536582126282, -12.68761059967801, -308.57540544401854, 0.09600000455975533, 1.008000047877431, 0.27200001291930676, 0.0, 0.0, 0.0, 0.0, 0.0, 1.7151025640098534E9, 0.0, 2024-05-07 12:22:44.009
31.0, -536.5914958924986, -558.7803223296069, -3.3266410105861723, -296.71618268452585, 0.09600000455975533, 0.9920000471174717, 0.27200001291930676, 0.0, 0.0, 0.0, 0.0, 0.0, 1.7151025640237122E9, 0.0, 2024-05-07 12:22:44.023
31.0, -516.2688795332797, -565.6916574477218, -0.4581377445720136, -302.98051511030644, 0.09600000455975533, 0.9920000471174717, 0.27200001291930676, 0.0, 0.0, 0.0, 0.0, 0.0, 1.7151025640237122E9, 0.0, 2024-05-07 12:22:44.023
32.0, -530.2336659678258, -569.8579059983604, -13.540307789575309, -318.13084983080626, 0.12800000607967377, 0.9920000471174717, 0.27200001291930676, 0.0, 0.0, 0.0, 0.0, 0.0, 1.7151025640389376E9, 0.0, 2024-05-07 12:22:44.038
32.0, -535.4396067061462, -561.2299568005838, -3.5547749078832567, -306.2117886720225, 0.12800000607967377, 0.9920000471174717, 0.27200001291930676, 0.0, 0.0, 0.0, 0.0, 0.0, 1.7151025640389376E9, 0.0, 2024-05-07 12:22:44.038
33.0, -519.5786909940653, -561.2112573008053, -3.0835475134663284, -313.0782449906692, 0.12800000607967377, 0.9920000471174717, 0.27200001291930676, 0.0, 0.0, 0.0, 0.0, 0.0, 1.7151025640542715E9, 0.0, 2024-05-07 12:22:44.054
33.0, -525.4391142246313, -570.5348278903402, -15.675790664274246, -325.9285412384197, 0.12800000607967377, 0.9920000471174717, 0.27200001291930676, 0.0, 0.0, 0.0, 0.0, 0.0, 1.7151025640542715E9, 0.0, 2024-05-07 12:22:44.054
34.0, -519.5562515943311, -560.5904339081608, 0.6189534426666796, -310.09380482602865, 0.12800000607967377, 0.9920000471174717, 0.27200001291930676, 0.0, 0.0, 0.0, 0.0, 0.0, 1.7151025640548947E9, 0.0, 2024-05-07 12:22:44.054
34.0, -514.3764901557006, -561.6525654955767, -5.566841084044427, -311.2905728118494, 0.12800000607967377, 0.9920000471174717, 0.27200001291930676, 0.0, 0.0, 0.0, 0.0, 0.0, 1.7151025640548947E9, 0.0, 2024-05-07 12:22:44.054
35.0, -519.8292642910965, -570.0523807960562, -5.8174143810756505, -317.54368553776294, 0.12800000607967377, 0.9920000471174717, 0.27200001291930676, 0.0, 0.0, 0.0, 0.0, 0.0, 1.7151025640692468E9, 0.0, 2024-05-07 12:22:44.069
35.0, -525.8280638200231, -564.1769979656674, -3.81656790478155, -312.36018419917673, 0.12800000607967377, 0.9920000471174717, 0.27200001291930676, 0.0, 0.0, 0.0, 0.0, 0.0, 1.7151025640692468E9, 0.0, 2024-05-07 12:22:44.069
36.0, -515.0459322477691, -561.974196891766, 6.961823767516762, -297.8830314707011, 0.12800000607967377, 0.9920000471174717, 0.27200001291930676, 0.0, 0.0, 0.0, 0.0, 0.0, 1.7151025640698597E9, 0.0, 2024-05-07 12:22:44.069
36.0, -522.1405224637128, -560.792388505768, 8.962670243810862, -299.31541315373033, 0.12800000607967377, 0.9920000471174717, 0.27200001291930676, 0.0, 0.0, 0.0, 0.0, 0.0, 1.7151025640698597E9, 0.0, 2024-05-07 12:22:44.069
37.0, -533.6107956278138, -563.7581291706301, 1.3519738339819014, -306.27536697126925, 0.12800000607967377, 0.9920000471174717, 0.27200001291930676, 0.0, 0.0, 0.0, 0.0, 0.0, 1.7151025640837624E9, 0.0, 2024-05-07 12:22:44.083
37.0, -495.8939045746811, -557.5985139436089, 9.733089634682983, -294.6180988093838, 0.12800000607967377, 0.9920000471174717, 0.27200001291930676, 0.0, 0.0, 0.0, 0.0, 0.0, 1.7151025640837624E9, 0.0, 2024-05-07 12:22:44.083
38.0, -509.2154282168485, -553.3836466935463, 12.152804906014353, -289.97688296437263, 0.12800000607967377, 0.9920000471174717, 0.27200001291930676, 0.0, 0.0, 0.0, 0.0, 0.0, 1.7151025640993433E9, 0.0, 2024-05-07 12:22:44.099
38.0, -526.2693720147945, -555.6126270671375, 12.728749499190599, -315.75975325889885, 0.12800000607967377, 0.9920000471174717, 0.27200001291930676, 0.0, 0.0, 0.0, 0.0, 0.0, 1.7151025640993433E9, 0.0, 2024-05-07 12:22:44.099
39.0, -506.68351594684646, -562.6885177833028, 20.092612511944026, -314.79485907033086, 0.12800000607967377, 0.9920000471174717, 0.27200001291930676, 0.0, 0.0, 0.0, 0.0, 0.0, 1.7151025640998352E9, 0.0, 2024-05-07 12:22:44.099
39.0, -494.30818699346855, -576.6084254183806, 15.48131586657837, -314.8210383700207, 0.12800000607967377, 0.9920000471174717, 0.27200001291930676, 0.0, 0.0, 0.0, 0.0, 0.0, 1.7151025640998352E9, 0.0, 2024-05-07 12:22:44.099
40.0, -524.7023539333604, -572.2813611696474, 2.2009311239235103, -312.936128792353, 0.12800000607967377, 0.9920000471174717, 0.2400000113993883, 0.0, 0.0, 0.0, 0.0, 0.0, 1.715102564113594E9, 0.0, 2024-05-07 12:22:44.113
40.0, -507.7119884346612, -577.2479483108036, 8.057614454533905, -319.53331231418997, 0.12800000607967377, 0.9920000471174717, 0.2400000113993883, 0.0, 0.0, 0.0, 0.0, 0.0, 1.715102564113594E9, 0.0, 2024-05-07 12:22:44.113
41.0, -506.68725584680215, -575.1236851359718, 7.246056164149195, -313.2203611889854, 0.12800000607967377, 1.008000047877431, 0.2400000113993883, 0.0, 0.0, 0.0, 0.0, 0.0, 1.7151025641295495E9, 0.0, 2024-05-07 12:22:44.129
41.0, -506.8106725453399, -571.5333811785094, 1.8680800278671086, -316.6760287480429, 0.12800000607967377, 1.008000047877431, 0.2400000113993883, 0.0, 0.0, 0.0, 0.0, 0.0, 1.7151025641295495E9, 0.0, 2024-05-07 12:22:44.129
42.0, -529.7474789735861, -574.6187986419536, -8.932751044165343, -319.8175447108224, 0.11200000531971455, 1.008000047877431, 0.2400000113993883, 0.0, 0.0, 0.0, 0.0, 0.0, 1.7151025641449535E9, 0.0, 2024-05-07 12:22:44.144
42.0, -510.32243860373273, -563.0064092795365, 8.734536346513778, -303.6910961018875, 0.11200000531971455, 1.008000047877431, 0.2400000113993883, 0.0, 0.0, 0.0, 0.0, 0.0, 1.7151025641449535E9, 0.0, 2024-05-07 12:22:44.144
43.0, -514.5111265541054, -563.8778059692122, 1.7259638295508921, -301.0993454325944, 0.11200000531971455, 1.008000047877431, 0.2400000113993883, 0.0, 0.0, 0.0, 0.0, 0.0, 1.7151025641450608E9, 0.0, 2024-05-07 12:22:44.145
43.0, -536.8420691895299, -565.8113342463039, -2.8703732159920037, -312.7753130942583, 0.11200000531971455, 1.008000047877431, 0.2400000113993883, 0.0, 0.0, 0.0, 0.0, 0.0, 1.7151025641450608E9, 0.0, 2024-05-07 12:22:44.145
44.0, -530.2374058677815, -562.1537120896392, -1.7409234293736517, -301.8099264241755, 0.11200000531971455, 1.008000047877431, 0.2400000113993883, 0.0, 0.0, 0.0, 0.0, 0.0, 1.715102564159366E9, 0.0, 2024-05-07 12:22:44.159
44.0, -524.2423462388106, -564.5135889616795, 0.30854174634441733, -305.1795762842521, 0.11200000531971455, 1.008000047877431, 0.2400000113993883, 0.0, 0.0, 0.0, 0.0, 0.0, 1.715102564159366E9, 0.0, 2024-05-07 12:22:44.159
45.0, -524.6200761343352, -572.3748586685397, -4.018522502388805, -308.9232161398977, 0.11200000531971455, 1.008000047877431, 0.2400000113993883, 0.0, 0.0, 0.0, 0.0, 0.0, 1.71510256416003E9, 0.0, 2024-05-07 12:22:44.160
45.0, -537.2422384847887, -565.1381522542797, -0.2935821465216577, -317.2557132411748, 0.11200000531971455, 1.008000047877431, 0.2400000113993883, 0.0, 0.0, 0.0, 0.0, 0.0, 1.71510256416003E9, 0.0, 2024-05-07 12:22:44.160
46.0, -532.7767979376949, -567.6139660249464, -2.2383301234804094, -306.4025235697627, 0.11200000531971455, 1.008000047877431, 0.2400000113993883, 0.0, 0.0, 0.0, 0.0, 0.0, 1.715102564173422E9, 0.0, 2024-05-07 12:22:44.173
46.0, -535.8023770018481, -572.9358436618932, -3.4051789096556604, -312.3265250995755, 0.11200000531971455, 1.008000047877431, 0.2400000113993883, 0.0, 0.0, 0.0, 0.0, 0.0, 1.715102564173422E9, 0.0, 2024-05-07 12:22:44.173
47.0, -533.3864016304724, -573.0480406605639, -9.340400139335543, -332.42848736140877, 0.11200000531971455, 1.008000047877431, 0.2400000113993883, 0.0, 0.0, 0.0, 0.0, 0.0, 1.7151025641893024E9, 0.0, 2024-05-07 12:22:44.189
47.0, -514.7392604514025, -565.5420614494942, 0.9742439384572208, -318.28044582903385, 0.11200000531971455, 1.008000047877431, 0.2400000113993883, 0.0, 0.0, 0.0, 0.0, 0.0, 1.7151025641893024E9, 0.0, 2024-05-07 12:22:44.189
48.0, -525.5026925238781, -556.0539352619089, 5.174151588696986, -315.408202663064, 0.11200000531971455, 1.008000047877431, 0.2400000113993883, 0.0, 0.0, 0.0, 0.0, 0.0, 1.7151025641899462E9, 0.0, 2024-05-07 12:22:44.189
48.0, -545.5672557861544, -567.4681099266745, -7.691104258876294, -319.28273901715875, 0.11200000531971455, 1.008000047877431, 0.2400000113993883, 0.0, 0.0, 0.0, 0.0, 0.0, 1.7151025641899462E9, 0.0, 2024-05-07 12:22:44.189
49.0, -528.120622492861, -562.0302953911014, 2.451504420954734, -308.54174634441733, 0.11200000531971455, 1.008000047877431, 0.2400000113993883, 0.0, 0.0, 0.0, 0.0, 0.0, 1.7151025642034948E9, 0.0, 2024-05-07 12:22:44.203
49.0, -534.1717806211673, -562.5688409847207, 5.42098498577252, -308.75866054184735, 0.11200000531971455, 1.008000047877431, 0.2400000113993883, 0.0, 0.0, 0.0, 0.0, 0.0, 1.7151025642034948E9, 0.0, 2024-05-07 12:22:44.203
50.0, -535.4096875065006, -565.7178367474116, -4.916098491754383, -322.71970707643777, 0.11200000531971455, 1.008000047877431, 0.2400000113993883, 0.0, 0.0, 0.0, 0.0, 0.0, 1.7151025642192955E9, 0.0, 2024-05-07 12:22:44.219
50.0, -535.8622154011391, -567.389572027605, -0.3309811460785568, -320.341130704619, 0.11200000531971455, 1.008000047877431, 0.2400000113993883, 0.0, 0.0, 0.0, 0.0, 0.0, 1.7151025642192955E9, 0.0, 2024-05-07 12:22:44.219
51.0, -518.5614382061176, -558.0323423384689, 8.181031153071672, -319.35379711631685, 0.11200000531971455, 1.0240000486373901, 0.2400000113993883, 0.0, 0.0, 0.0, 0.0, 0.0, 1.7151025642198968E9, 0.0, 2024-05-07 12:22:44.219
51.0, -535.1965132090263, -568.9416305092163, 0.07292804913595319, -319.4136355156079, 0.11200000531971455, 1.0240000486373901, 0.2400000113993883, 0.0, 0.0, 0.0, 0.0, 0.0, 1.7151025642198968E9, 0.0, 2024-05-07 12:22:44.219
52.0, -530.955466659274, -568.3769056159072, -6.849626768846065, -321.91188868600875, 0.11200000531971455, 1.0240000486373901, 0.2400000113993883, 0.0, 0.0, 0.0, 0.0, 0.0, 1.7151025642337668E9, 0.0, 2024-05-07 12:22:44.233
52.0, -530.0317113702185, -562.1836312892847, -1.531489031855017, -301.56309302709997, 0.11200000531971455, 1.0240000486373901, 0.2400000113993883, 0.0, 0.0, 0.0, 0.0, 0.0, 1.7151025642337668E9, 0.0, 2024-05-07 12:22:44.233
53.0, -534.9422000120394, -558.320314635057, 0.4506579446606338, -308.9232161398977, 0.11200000531971455, 1.0240000486373901, 0.2400000113993883, 0.0, 0.0, 0.0, 0.0, 0.0, 1.7151025642492697E9, 0.0, 2024-05-07 12:22:44.249
53.0, -544.692119196523, -560.732550106477, -3.977383602876216, -319.2902188170701, 0.11200000531971455, 1.0240000486373901, 0.2400000113993883, 0.0, 0.0, 0.0, 0.0, 0.0, 1.7151025642492697E9, 0.0, 2024-05-07 12:22:44.249
54.0, -535.9444932001643, -557.4788371450268, -3.4762370088137686, -313.9309421805665, 0.11200000531971455, 1.0240000486373901, 0.2400000113993883, 0.0, 0.0, 0.0, 0.0, 0.0, 1.7151025642499542E9, 0.0, 2024-05-07 12:22:44.249
54.0, -513.7369672632776, -566.3237005402334, -4.20925740012899, -316.1599225541577, 0.11200000531971455, 1.0240000486373901, 0.2400000113993883, 0.0, 0.0, 0.0, 0.0, 0.0, 1.7151025642499542E9, 0.0, 2024-05-07 12:22:44.249
55.0, -527.6119960988872, -567.7336428235285, 0.005609849933534861, -319.0396455200389, 0.11200000531971455, 1.0240000486373901, 0.2400000113993883, 0.0, 0.0, 0.0, 0.0, 0.0, 1.7151025642635128E9, 0.0, 2024-05-07 12:22:44.263
55.0, -524.3021846381016, -562.3594065872021, -5.540661784354597, -326.781238428317, 0.11200000531971455, 1.0240000486373901, 0.2400000113993883, 0.0, 0.0, 0.0, 0.0, 0.0, 1.7151025642635128E9, 0.0, 2024-05-07 12:22:44.263
56.0, -530.7572519616224, -564.5584677611478, 1.4566910327412188, -315.95422805659473, 0.11200000531971455, 1.0240000486373901, 0.2400000113993883, 0.0, 0.0, 0.0, 0.0, 0.0, 1.7151025642791913E9, 0.0, 2024-05-07 12:22:44.279
56.0, -529.9008148717694, -563.3916189749725, -5.398545586038381, -309.2560672359541, 0.11200000531971455, 1.0240000486373901, 0.2400000113993883, 0.0, 0.0, 0.0, 0.0, 0.0, 1.7151025642791913E9, 0.0, 2024-05-07 12:22:44.279
57.0, -541.9619922288693, -568.7957744109444, -4.946017691399902, -309.05037273839116, 0.11200000531971455, 1.0240000486373901, 0.2400000113993883, 0.0, 0.0, 0.0, 0.0, 0.0, 1.715102564279876E9, 0.0, 2024-05-07 12:22:44.279
57.0, -533.5285178287886, -560.4595374097116, 7.0590611663647, -301.57431272696704, 0.11200000531971455, 1.0240000486373901, 0.2400000113993883, 0.0, 0.0, 0.0, 0.0, 0.0, 1.715102564279876E9, 0.0, 2024-05-07 12:22:44.279
58.0, -532.0549972462468, -569.9738428969868, 0.6563524422235787, -306.4324427694082, 0.11200000531971455, 1.0240000486373901, 0.2400000113993883, 0.0, 0.0, 0.0, 0.0, 0.0, 1.7151025642935913E9, 0.0, 2024-05-07 12:22:44.293
58.0, -542.9979445165955, -574.8618921390735, -4.740323193836957, -320.7450398998335, 0.11200000531971455, 1.0240000486373901, 0.2400000113993883, 0.0, 0.0, 0.0, 0.0, 0.0, 1.7151025642935913E9, 0.0, 2024-05-07 12:22:44.293
59.0, -529.8970749718137, -574.5365208429284, 6.958083867561072, -307.79002645332366, 0.11200000531971455, 1.0240000486373901, 0.2400000113993883, 0.0, 0.0, 0.0, 0.0, 0.0, 1.7151025643093092E9, 0.0, 2024-05-07 12:22:44.309
59.0, -524.4293412365951, -579.8471787800081, 6.864586368668824, -307.46091525722295, 0.11200000531971455, 1.0240000486373901, 0.2400000113993883, 0.0, 0.0, 0.0, 0.0, 0.0, 1.7151025643093092E9, 0.0, 2024-05-07 12:22:44.309
60.0, -544.0825155037455, -572.2963207694702, -9.06738744257018, -311.5224466091022, 0.11200000531971455, 1.0240000486373901, 0.2400000113993883, 0.0, 0.0, 0.0, 0.0, 0.0, 1.715102564310089E9, 0.0, 2024-05-07 12:22:44.310
60.0, -546.7677636719309, -566.6752511360683, 3.5547749078832567, -309.8544512288645, 0.11200000531971455, 1.0240000486373901, 0.2400000113993883, 0.0, 0.0, 0.0, 0.0, 0.0, 1.715102564310089E9, 0.0, 2024-05-07 12:22:44.310
61.0, -520.7791988798417, -569.5774135016836, 6.868326268624514, -303.94166939891875, 0.11200000531971455, 1.008000047877431, 0.2400000113993883, 0.0, 0.0, 0.0, 0.0, 0.0, 1.7151025643235884E9, 0.0, 2024-05-07 12:22:44.323
61.0, -538.517544369679, -563.5486947731115, 5.204070788342506, -305.83405877649784, 0.11200000531971455, 1.008000047877431, 0.2400000113993883, 0.0, 0.0, 0.0, 0.0, 0.0, 1.7151025643235884E9, 0.0, 2024-05-07 12:22:44.323
62.0, -549.7110649370588, -559.7489564181305, 0.1290265484713018, -316.0701649552211, 0.09600000455975533, 1.008000047877431, 0.2400000113993883, 0.0, 0.0, 0.0, 0.0, 0.0, 1.7151025643391635E9, 0.0, 2024-05-07 12:22:44.339
62.0, -525.9888795181178, -563.638452372048, 11.221569817047566, -298.5786528624594, 0.09600000455975533, 1.008000047877431, 0.2400000113993883, 0.0, 0.0, 0.0, 0.0, 0.0, 1.7151025643391635E9, 0.0, 2024-05-07 12:22:44.339
63.0, -521.0035928771831, -563.0924269785173, 7.799561357591301, -304.8168059885502, 0.09600000455975533, 1.008000047877431, 0.2400000113993883, 0.0, 0.0, 0.0, 0.0, 0.0, 1.7151025643399985E9, 0.0, 2024-05-07 12:22:44.339
63.0, -542.0031311283819, -570.9424769855104, -9.673251235391945, -320.46828730311245, 0.09600000455975533, 1.008000047877431, 0.2400000113993883, 0.0, 0.0, 0.0, 0.0, 0.0, 1.7151025643399985E9, 0.0, 2024-05-07 12:22:44.339
64.0, -541.8236159305088, -563.5374750732444, 0.7274105413816869, -305.63958397880197, 0.09600000455975533, 1.008000047877431, 0.2400000113993883, 0.0, 0.0, 0.0, 0.0, 0.0, 1.7151025643700695E9, 0.0, 2024-05-07 12:22:44.370
64.0, -529.1079560811631, -557.9014458400197, 4.583247395697981, -298.0363673688844, 0.09600000455975533, 1.008000047877431, 0.2400000113993883, 0.0, 0.0, 0.0, 0.0, 0.0, 1.7151025643700695E9, 0.0, 2024-05-07 12:22:44.370
65.0, -543.3794143120758, -565.9010918452404, -4.272835699375719, -315.3745435634628, 0.09600000455975533, 1.008000047877431, 0.2400000113993883, 0.0, 0.0, 0.0, 0.0, 0.0, 1.7151025643705883E9, 0.0, 2024-05-07 12:22:44.370
65.0, -529.5343046761118, -560.4483177098446, 5.600500183645636, -313.6317501841113, 0.09600000455975533, 1.008000047877431, 0.2400000113993883, 0.0, 0.0, 0.0, 0.0, 0.0, 1.7151025643705883E9, 0.0, 2024-05-07 12:22:44.370
66.0, -528.1056628930382, -561.2262169006281, 9.280561740044504, -302.78978021256626, 0.09600000455975533, 1.008000047877431, 0.2400000113993883, 0.0, 0.0, 0.0, 0.0, 0.0, 1.7151025643713455E9, 0.0, 2024-05-07 12:22:44.371
66.0, -535.5854628044181, -561.9480175920762, 8.364286250900477, -307.0009075626731, 0.09600000455975533, 1.008000047877431, 0.2400000113993883, 0.0, 0.0, 0.0, 0.0, 0.0, 1.7151025643713455E9, 0.0, 2024-05-07 12:22:44.371
67.0, -529.5530041758902, -561.9667170918547, 12.68013079976663, -309.2149283364415, 0.09600000455975533, 1.008000047877431, 0.2400000113993883, 0.0, 0.0, 0.0, 0.0, 0.0, 1.7151025643835804E9, 0.0, 2024-05-07 12:22:44.383
