%OpenBCI Raw EXG Data
%Number of channels = 4
%Sample Rate = 200 Hz
%Board = OpenBCI_GUI$BoardGanglionBLE
Sample Index, EXG Channel 0, EXG Channel 1, EXG Channel 2, EXG Channel 3, Accel Channel 0, Accel Channel 1, Accel Channel 2, Other, Other, Other, Other, Other, Timestamp, Other, Timestamp (Formatted)
0.0, -301.21341238124296, -504.37038782425225, 191.69605202879757, -261.12168485624716, 0.0, 0.0, 0.0, 0.0, 0.0, 0.0, 0.0, 0.0, 1.7151021889734871E9, 0.0, 2024-05-07 12:16:28.973
1.0, -305.44697913108394, -493.1319884574041, 196.9057326670736, -252.97618275275454, 0.0, 1.008000047877431, 0.0, 0.0, 0.0, 0.0, 0.0, 0.0, 1.7151021889868135E9, 0.0, 2024-05-07 12:16:28.986
1.0, -295.3716886504553, -489.2275329036638, 216.86557873059064, -251.54006116976961, 0.0, 1.008000047877431, 0.0, 0.0, 0.0, 0.0, 0.0, 0.0, 1.7151021889868135E9, 0.0, 2024-05-07 12:16:28.986
2.0, -290.46493990859017, -487.4996991241351, 202.08923400565982, -255.42955712368712, 0.11200000531971455, 1.008000047877431, 0.0, 0.0, 0.0, 0.0, 0.0, 0.0, 1.715102189003543E9, 0.0, 2024-05-07 12:16:29.003
2.0, -288.6398687302135, -490.648694886826, 193.63332020584494, -249.49433589400724, 0.11200000531971455, 1.008000047877431, 0.0, 0.0, 0.0, 0.0, 0.0, 0.0, 1.715102189003543E9, 0.0, 2024-05-07 12:16:29.003
3.0, -289.634682118427, -486.9424540307373, 205.29806816764176, -243.44691766565666, 0.11200000531971455, 1.008000047877431, 0.0, 0.0, 0.0, 0.0, 0.0, 0.0, 1.7151021890042508E9, 0.0, 2024-05-07 12:16:29.004
3.0, -282.35683680465445, -487.4136814251542, 215.34717934858054, -242.14543248107657, 0.11200000531971455, 1.008000047877431, 0.0, 0.0, 0.0, 0.0, 0.0, 0.0, 1.7151021890042508E9, 0.0, 2024-05-07 12:16:29.004
4.0, -286.75869905250147, -492.5373443644494, 209.78220821451396, -252.16088456241414, 0.11200000531971455, 1.008000047877431, 0.0, 0.0, 0.0, 0.0, 0.0, 0.0, 1.7151021890167325E9, 0.0, 2024-05-07 12:16:29.016
4.0, -293.24368557566777, -490.2410457916558, 206.93240444827825, -248.38732550712302, 0.11200000531971455, 1.008000047877431, 0.0, 0.0, 0.0, 0.0, 0.0, 0.0, 1.7151021890167325E9, 0.0, 2024-05-07 12:16:29.016
5.0, -288.4192146328278, -484.46664026007056, 208.56300082895905, -246.5772139285691, 0.11200000531971455, 1.008000047877431, 0.0, 0.0, 0.0, 0.0, 0.0, 0.0, 1.7151021890323625E9, 0.0, 2024-05-07 12:16:29.032
5.0, -303.25539775704965, -500.61926816869527, 198.73828364536166, -255.1004459275864, 0.11200000531971455, 1.008000047877431, 0.0, 0.0, 0.0, 0.0, 0.0, 0.0, 1.7151021890323625E9, 0.0, 2024-05-07 12:16:29.032
6.0, -288.53889143140987, -490.5664170878008, 212.23184268549085, -244.8755594487302, 0.11200000531971455, 1.008000047877431, 0.0, 0.0, 0.0, 0.0, 0.0, 0.0, 1.7151021890330422E9, 0.0, 2024-05-07 12:16:29.033
6.0, -282.663508601021, -487.3875021254644, 203.46177728939801, -242.04071528231725, 0.11200000531971455, 1.008000047877431, 0.0, 0.0, 0.0, 0.0, 0.0, 0.0, 1.7151021890330422E9, 0.0, 2024-05-07 12:16:29.033
7.0, -296.5983758359216, -495.80227702576667, 200.5409154240042, -253.78026124322787, 0.11200000531971455, 1.008000047877431, 0.0, 0.0, 0.0, 0.0, 0.0, 0.0, 1.7151021890466535E9, 0.0, 2024-05-07 12:16:29.046
7.0, -303.0833623590879, -487.4510804247111, 205.47384346555918, -248.61171950446442, 0.11200000531971455, 1.008000047877431, 0.0, 0.0, 0.0, 0.0, 0.0, 0.0, 1.7151021890466535E9, 0.0, 2024-05-07 12:16:29.046
8.0, -293.06417037779465, -492.4662862652913, 205.79547486174852, -261.00574795762077, 0.11200000531971455, 1.008000047877431, 0.0, 0.0, 0.0, 0.0, 0.0, 0.0, 1.7151021890625966E9, 0.0, 2024-05-07 12:16:29.062
8.0, -283.4227082920261, -493.5358976526186, 204.85675997287035, -251.1398918745108, 0.11200000531971455, 1.008000047877431, 0.0, 0.0, 0.0, 0.0, 0.0, 0.0, 1.7151021890625966E9, 0.0, 2024-05-07 12:16:29.062
9.0, -293.98792566685006, -503.62988763302565, 192.8292417153716, -261.8734047473408, 0.11200000531971455, 1.008000047877431, 0.0, 0.0, 0.0, 0.0, 0.0, 0.0, 1.7151021890631635E9, 0.0, 2024-05-07 12:16:29.063
9.0, -289.9076948151924, -491.32187687885016, 209.27732172049582, -256.3907114122994, 0.11200000531971455, 1.008000047877431, 0.0, 0.0, 0.0, 0.0, 0.0, 0.0, 1.7151021890631635E9, 0.0, 2024-05-07 12:16:29.063
10.0, -290.69681370584294, -482.9033620785922, 193.07607511244714, -245.5824005403556, 0.11200000531971455, 1.008000047877431, 0.3040000144392252, 0.0, 0.0, 0.0, 0.0, 0.0, 1.7151021890769117E9, 0.0, 2024-05-07 12:16:29.076
10.0, -306.92049971362576, -490.65243478678167, 193.88763340283185, -255.99802191695198, 0.11200000531971455, 1.008000047877431, 0.3040000144392252, 0.0, 0.0, 0.0, 0.0, 0.0, 1.7151021890769117E9, 0.0, 2024-05-07 12:16:29.076
11.0, -293.32222347473726, -490.80951058492064, 213.41365107148886, -252.66951095638797, 0.11200000531971455, 0.9760000463575125, 0.3040000144392252, 0.0, 0.0, 0.0, 0.0, 0.0, 1.715102189092435E9, 0.0, 2024-05-07 12:16:29.092
11.0, -289.851596315857, -490.0166517943144, 209.66253141593188, -259.98101536976174, 0.11200000531971455, 0.9760000463575125, 0.3040000144392252, 0.0, 0.0, 0.0, 0.0, 0.0, 1.715102189092435E9, 0.0, 2024-05-07 12:16:29.092
12.0, -293.94678676733747, -484.7770519563928, 202.73623669799417, -259.49482837552205, 0.09600000455975533, 0.9760000463575125, 0.3040000144392252, 0.0, 0.0, 0.0, 0.0, 0.0, 1.7151021890931628E9, 0.0, 2024-05-07 12:16:29.093
12.0, -297.4660326256417, -488.21028011571616, 202.23509010393173, -262.8457787358202, 0.09600000455975533, 0.9760000463575125, 0.3040000144392252, 0.0, 0.0, 0.0, 0.0, 0.0, 1.7151021890931628E9, 0.0, 2024-05-07 12:16:29.093
13.0, -292.1890337881632, -489.900714895688, 197.70981115754694, -263.6161981266923, 0.09600000455975533, 0.9760000463575125, 0.3040000144392252, 0.0, 0.0, 0.0, 0.0, 0.0, 1.7151021891067104E9, 0.0, 2024-05-07 12:16:29.106
13.0, -289.10735622467473, -490.3382831905037, 197.29094236250967, -254.5880796336569, 0.09600000455975533, 0.9760000463575125, 0.3040000144392252, 0.0, 0.0, 0.0, 0.0, 0.0, 1.7151021891067104E9, 0.0, 2024-05-07 12:16:29.106
14.0, -298.0419772188179, -498.5997221926227, 192.18971882294863, -270.8790838406421, 0.09600000455975533, 0.9760000463575125, 0.3040000144392252, 0.0, 0.0, 0.0, 0.0, 0.0, 1.7151021891223032E9, 0.0, 2024-05-07 12:16:29.122
14.0, -290.32656361022964, -489.3509496022016, 193.0199766131118, -256.23737551411614, 0.09600000455975533, 0.9760000463575125, 0.3040000144392252, 0.0, 0.0, 0.0, 0.0, 0.0, 1.7151021891223032E9, 0.0, 2024-05-07 12:16:29.122
15.0, -301.84545547375455, -484.4180215606466, 192.7581836162135, -247.60194651642814, 0.09600000455975533, 0.9760000463575125, 0.3040000144392252, 0.0, 0.0, 0.0, 0.0, 0.0, 1.715102189123037E9, 0.0, 2024-05-07 12:16:29.123
15.0, -295.158514352981, -489.51176530029625, 197.10020746476948, -263.0028545339592, 0.09600000455975533, 0.9760000463575125, 0.3040000144392252, 0.0, 0.0, 0.0, 0.0, 0.0, 1.715102189123037E9, 0.0, 2024-05-07 12:16:29.123
16.0, -296.43756013782695, -499.8226694781333, 202.59786039963365, -258.2905805897899, 0.09600000455975533, 0.9760000463575125, 0.3040000144392252, 0.0, 0.0, 0.0, 0.0, 0.0, 1.7151021891366444E9, 0.0, 2024-05-07 12:16:29.136
16.0, -300.1625004936941, -496.76717121433467, 201.90223900787532, -253.29407424898818, 0.09600000455975533, 0.9760000463575125, 0.3040000144392252, 0.0, 0.0, 0.0, 0.0, 0.0, 1.7151021891366444E9, 0.0, 2024-05-07 12:16:29.136
17.0, -307.171073010657, -493.9398068478331, 189.35861455649137, -269.4504420575686, 0.09600000455975533, 0.9760000463575125, 0.3040000144392252, 0.0, 0.0, 0.0, 0.0, 0.0, 1.715102189152446E9, 0.0, 2024-05-07 12:16:29.152
17.0, -287.8956286390312, -487.40246172528714, 193.71559800487012, -266.52958019217476, 0.09600000455975533, 0.9760000463575125, 0.3040000144392252, 0.0, 0.0, 0.0, 0.0, 0.0, 1.715102189152446E9, 0.0, 2024-05-07 12:16:29.152
18.0, -302.48497836617753, -495.88455482479185, 197.04410896543413, -260.4821619638242, 0.09600000455975533, 0.9760000463575125, 0.3040000144392252, 0.0, 0.0, 0.0, 0.0, 0.0, 1.715102189152998E9, 0.0, 2024-05-07 12:16:29.152
18.0, -293.95052666729316, -486.32163063809276, 196.22881077509373, -257.5500803985633, 0.09600000455975533, 0.9760000463575125, 0.3040000144392252, 0.0, 0.0, 0.0, 0.0, 0.0, 1.715102189152998E9, 0.0, 2024-05-07 12:16:29.152
19.0, -307.18603261047974, -489.7211996978149, 190.74611744005233, -256.30095381336287, 0.09600000455975533, 0.9760000463575125, 0.3040000144392252, 0.0, 0.0, 0.0, 0.0, 0.0, 1.7151021891667843E9, 0.0, 2024-05-07 12:16:29.166
19.0, -304.3923273435794, -487.3501031259075, 199.6470793345943, -246.66697152750567, 0.09600000455975533, 0.9760000463575125, 0.3040000144392252, 0.0, 0.0, 0.0, 0.0, 0.0, 1.7151021891667843E9, 0.0, 2024-05-07 12:16:29.166
20.0, -302.95620576059446, -486.10471644066274, 191.40433983225375, -243.7236702623777, 0.09600000455975533, 0.9760000463575125, 0.3200000151991844, 0.0, 0.0, 0.0, 0.0, 0.0, 1.7151021891823227E9, 0.0, 2024-05-07 12:16:29.182
20.0, -312.4929506476037, -482.1254628878087, 185.83562879823148, -258.2905805897899, 0.09600000455975533, 0.9760000463575125, 0.3200000151991844, 0.0, 0.0, 0.0, 0.0, 0.0, 1.7151021891823227E9, 0.0, 2024-05-07 12:16:29.182
21.0, -308.21824499825016, -477.65628244075924, 202.8746129963547, -241.7976217851974, 0.09600000455975533, 0.9920000471174717, 0.3200000151991844, 0.0, 0.0, 0.0, 0.0, 0.0, 1.7151021891830304E9, 0.0, 2024-05-07 12:16:29.183
21.0, -308.1210075994022, -486.87887573149055, 194.60943409428, -248.3536664075218, 0.09600000455975533, 0.9920000471174717, 0.3200000151991844, 0.0, 0.0, 0.0, 0.0, 0.0, 1.7151021891830304E9, 0.0, 2024-05-07 12:16:29.183
22.0, -318.3645935780369, -494.28761754371226, 194.74033059272915, -260.19044976728037, 0.11200000531971455, 0.9920000471174717, 0.3200000151991844, 0.0, 0.0, 0.0, 0.0, 0.0, 1.7151021891967263E9, 0.0, 2024-05-07 12:16:29.196
22.0, -294.8256632569246, -482.9706802777946, 201.86484000831842, -259.49482837552205, 0.11200000531971455, 0.9920000471174717, 0.3200000151991844, 0.0, 0.0, 0.0, 0.0, 0.0, 1.7151021891967263E9, 0.0, 2024-05-07 12:16:29.196
23.0, -309.51599028287455, -479.17468182276934, 198.18851835187525, -251.27452827291563, 0.11200000531971455, 0.9920000471174717, 0.3200000151991844, 0.0, 0.0, 0.0, 0.0, 0.0, 1.7151021892127795E9, 0.0, 2024-05-07 12:16:29.212
23.0, -312.37701374897733, -472.54383920133114, 200.16318552847952, -259.93613657029346, 0.11200000531971455, 0.9920000471174717, 0.3200000151991844, 0.0, 0.0, 0.0, 0.0, 0.0, 1.7151021892127795E9, 0.0, 2024-05-07 12:16:29.212
24.0, -306.17625962244347, -482.54059178289026, 191.61751412972808, -258.75432818429545, 0.11200000531971455, 0.9920000471174717, 0.3200000151991844, 0.0, 0.0, 0.0, 0.0, 0.0, 1.7151021892130425E9, 0.0, 2024-05-07 12:16:29.213
24.0, -299.44069980224594, -481.62431629374623, 200.11830672901124, -257.2546283020638, 0.11200000531971455, 0.9920000471174717, 0.3200000151991844, 0.0, 0.0, 0.0, 0.0, 0.0, 1.7151021892130425E9, 0.0, 2024-05-07 12:16:29.213
25.0, -295.4876255490817, -473.329218192026, 202.77363569755107, -247.4373909183778, 0.11200000531971455, 0.9920000471174717, 0.3200000151991844, 0.0, 0.0, 0.0, 0.0, 0.0, 1.7151021892266488E9, 0.0, 2024-05-07 12:16:29.226
25.0, -305.69755242811516, -482.121722987853, 192.21215822268277, -263.0701727331616, 0.11200000531971455, 0.9920000471174717, 0.3200000151991844, 0.0, 0.0, 0.0, 0.0, 0.0, 1.7151021892266488E9, 0.0, 2024-05-07 12:16:29.226
26.0, -299.66883369954303, -487.84003002010286, 191.1275872355327, -257.49024199927226, 0.11200000531971455, 0.9920000471174717, 0.3200000151991844, 0.0, 0.0, 0.0, 0.0, 0.0, 1.7151021892422907E9, 0.0, 2024-05-07 12:16:29.242
26.0, -290.35274290991947, -484.642415557988, 200.20058452803642, -252.41519775940105, 0.11200000531971455, 0.9920000471174717, 0.3200000151991844, 0.0, 0.0, 0.0, 0.0, 0.0, 1.7151021892422907E9, 0.0, 2024-05-07 12:16:29.242
27.0, -298.09807571815327, -480.7416999042034, 195.95953797828406, -254.76759483153, 0.11200000531971455, 0.9920000471174717, 0.3200000151991844, 0.0, 0.0, 0.0, 0.0, 0.0, 1.7151021892430289E9, 0.0, 2024-05-07 12:16:29.243
27.0, -296.4936586371623, -484.533958459273, 203.18128479272127, -254.47962253494188, 0.11200000531971455, 0.9920000471174717, 0.3200000151991844, 0.0, 0.0, 0.0, 0.0, 0.0, 1.7151021892430289E9, 0.0, 2024-05-07 12:16:29.243
28.0, -296.9050476322882, -479.98998001310974, 197.04036906547844, -247.5757672167383, 0.11200000531971455, 0.9920000471174717, 0.3200000151991844, 0.0, 0.0, 0.0, 0.0, 0.0, 1.7151021892731156E9, 0.0, 2024-05-07 12:16:29.273
28.0, -290.10590951284394, -476.814804950729, 201.84240060858428, -253.19683685014024, 0.11200000531971455, 0.9920000471174717, 0.3200000151991844, 0.0, 0.0, 0.0, 0.0, 0.0, 1.7151021892731156E9, 0.0, 2024-05-07 12:16:29.273
29.0, -299.61647510016337, -484.8144509559497, 189.3174756569788, -257.37430510064587, 0.11200000531971455, 0.9920000471174717, 0.3200000151991844, 0.0, 0.0, 0.0, 0.0, 0.0, 1.7151021892738702E9, 0.0, 2024-05-07 12:16:29.273
29.0, -303.3526351558976, -484.0552512649447, 203.30470149125904, -250.23857598518953, 0.11200000531971455, 0.9920000471174717, 0.3200000151991844, 0.0, 0.0, 0.0, 0.0, 0.0, 1.7151021892738702E9, 0.0, 2024-05-07 12:16:29.273
30.0, -296.2655247398652, -475.61429706495255, 202.78111549746245, -243.51049596490338, 0.11200000531971455, 0.9920000471174717, 0.3200000151991844, 0.0, 0.0, 0.0, 0.0, 0.0, 1.7151021892744522E9, 0.0, 2024-05-07 12:16:29.274
30.0, -312.62384714605287, -475.1206302708015, 194.7552901925519, -255.2837010254152, 0.11200000531971455, 0.9920000471174717, 0.3200000151991844, 0.0, 0.0, 0.0, 0.0, 0.0, 1.7151021892744522E9, 0.0, 2024-05-07 12:16:29.274
31.0, -293.2249860758893, -469.4509419379756, 205.23822976835072, -246.80908772582188, 0.11200000531971455, 0.9920000471174717, 0.3200000151991844, 0.0, 0.0, 0.0, 0.0, 0.0, 1.7151021892867908E9, 0.0, 2024-05-07 12:16:29.286
31.0, -293.69621347030625, -473.9650011844933, 214.30374726094306, -245.96387033583596, 0.11200000531971455, 0.9920000471174717, 0.3200000151991844, 0.0, 0.0, 0.0, 0.0, 0.0, 1.7151021892867908E9, 0.0, 2024-05-07 12:16:29.286
32.0, -307.5824620057829, -478.4416614314541, 200.7952286209911, -253.02106155222282, 0.09600000455975533, 0.9920000471174717, 0.3200000151991844, 0.0, 0.0, 0.0, 0.0, 0.0, 1.7151021893026407E9, 0.0, 2024-05-07 12:16:29.302
32.0, -298.4982450134121, -480.3751897085458, 199.56854143552482, -248.52570180548355, 0.09600000455975533, 0.9920000471174717, 0.3200000151991844, 0.0, 0.0, 0.0, 0.0, 0.0, 1.7151021893026407E9, 0.0, 2024-05-07 12:16:29.302
33.0, -294.17492066463456, -483.2586525743827, 194.9796841898933, -255.07800652785227, 0.09600000455975533, 0.9920000471174717, 0.3200000151991844, 0.0, 0.0, 0.0, 0.0, 0.0, 1.7151021893031633E9, 0.0, 2024-05-07 12:16:29.303
33.0, -307.761977203656, -475.64795616455376, 199.2431701393798, -265.49362790444866, 0.09600000455975533, 0.9920000471174717, 0.3200000151991844, 0.0, 0.0, 0.0, 0.0, 0.0, 1.7151021893031633E9, 0.0, 2024-05-07 12:16:29.303
34.0, -312.6388067458756, -482.39099578466266, 198.794382144697, -265.3290723063983, 0.09600000455975533, 0.9920000471174717, 0.3200000151991844, 0.0, 0.0, 0.0, 0.0, 0.0, 1.715102189316775E9, 0.0, 2024-05-07 12:16:29.316
34.0, -307.2047321102582, -473.9276021849364, 207.74022283870727, -249.46067679440603, 0.09600000455975533, 0.9920000471174717, 0.3200000151991844, 0.0, 0.0, 0.0, 0.0, 0.0, 1.715102189316775E9, 0.0, 2024-05-07 12:16:29.316
35.0, -308.3828005963005, -469.34622473921627, 205.25318936817348, -247.5421081171371, 0.09600000455975533, 0.9920000471174717, 0.3200000151991844, 0.0, 0.0, 0.0, 0.0, 0.0, 1.715102189332464E9, 0.0, 2024-05-07 12:16:29.332
35.0, -300.2260787929408, -473.4152358910069, 208.9108115248382, -251.12867217464373, 0.09600000455975533, 0.9920000471174717, 0.3200000151991844, 0.0, 0.0, 0.0, 0.0, 0.0, 1.715102189332464E9, 0.0, 2024-05-07 12:16:29.332
36.0, -292.51066518435255, -468.42620935011655, 213.75398196745664, -243.06544787017629, 0.09600000455975533, 0.9920000471174717, 0.3200000151991844, 0.0, 0.0, 0.0, 0.0, 0.0, 1.7151021893331437E9, 0.0, 2024-05-07 12:16:29.333
36.0, -291.9347205911763, -471.339591415599, 213.18551717419177, -247.04844132298604, 0.09600000455975533, 0.9920000471174717, 0.3200000151991844, 0.0, 0.0, 0.0, 0.0, 0.0, 1.7151021893331437E9, 0.0, 2024-05-07 12:16:29.333
37.0, -313.5663019348867, -472.9215690968558, 207.45225054211915, -252.70317005598918, 0.09600000455975533, 0.9920000471174717, 0.3200000151991844, 0.0, 0.0, 0.0, 0.0, 0.0, 1.715102189346648E9, 0.0, 2024-05-07 12:16:29.346
37.0, -318.11402028100565, -466.14113047719, 202.64273919910192, -253.26415504934266, 0.09600000455975533, 0.9920000471174717, 0.3200000151991844, 0.0, 0.0, 0.0, 0.0, 0.0, 1.715102189346648E9, 0.0, 2024-05-07 12:16:29.346
38.0, -316.7302572974004, -456.264054694213, 204.82310087326914, -242.7251169742085, 0.09600000455975533, 0.9920000471174717, 0.3200000151991844, 0.0, 0.0, 0.0, 0.0, 0.0, 1.7151021893620675E9, 0.0, 2024-05-07 12:16:29.362
38.0, -313.4690645360388, -460.16851024795324, 209.3932586191222, -251.37924547167495, 0.09600000455975533, 0.9920000471174717, 0.3200000151991844, 0.0, 0.0, 0.0, 0.0, 0.0, 1.7151021893620675E9, 0.0, 2024-05-07 12:16:29.362
39.0, -306.37073442013934, -468.90865644440055, 210.55262760538608, -253.63814504491165, 0.09600000455975533, 0.9920000471174717, 0.3200000151991844, 0.0, 0.0, 0.0, 0.0, 0.0, 1.7151021893774931E9, 0.0, 2024-05-07 12:16:29.377
39.0, -294.9789991551079, -467.0835852660239, 208.89211202505976, -252.8752054539509, 0.09600000455975533, 0.9920000471174717, 0.3200000151991844, 0.0, 0.0, 0.0, 0.0, 0.0, 1.7151021893774931E9, 0.0, 2024-05-07 12:16:29.377
40.0, -292.77245818125084, -471.05535901896656, 210.19359720963985, -257.131211603526, 0.09600000455975533, 0.9920000471174717, 0.3040000144392252, 0.0, 0.0, 0.0, 0.0, 0.0, 1.7151021893780391E9, 0.0, 2024-05-07 12:16:29.378
40.0, -303.5732892532833, -474.90745597332716, 204.8418003730476, -271.290472835768, 0.09600000455975533, 0.9920000471174717, 0.3040000144392252, 0.0, 0.0, 0.0, 0.0, 0.0, 1.7151021893780391E9, 0.0, 2024-05-07 12:16:29.378
41.0, -294.58630965976045, -469.8885102327913, 208.2488492326811, -270.63973024347797, 0.09600000455975533, 0.9760000463575125, 0.3040000144392252, 0.0, 0.0, 0.0, 0.0, 0.0, 1.7151021893924391E9, 0.0, 2024-05-07 12:16:29.392
41.0, -294.83688295679167, -465.3258322868496, 197.40687926113605, -262.12023814441636, 0.09600000455975533, 0.9760000463575125, 0.3040000144392252, 0.0, 0.0, 0.0, 0.0, 0.0, 1.7151021893924391E9, 0.0, 2024-05-07 12:16:29.392
42.0, -296.9648860315792, -477.47302734293044, 190.40204664412886, -272.7116348189302, 0.11200000531971455, 0.9760000463575125, 0.3040000144392252, 0.0, 0.0, 0.0, 0.0, 0.0, 1.7151021893930736E9, 0.0, 2024-05-07 12:16:29.393
42.0, -296.9087875322439, -480.2368134101853, 186.58734868932515, -267.64033047901466, 0.11200000531971455, 0.9760000463575125, 0.3040000144392252, 0.0, 0.0, 0.0, 0.0, 0.0, 1.7151021893930736E9, 0.0, 2024-05-07 12:16:29.393
43.0, -301.66220037592575, -478.9353282256052, 184.3808077154681, -256.79462060751393, 0.11200000531971455, 0.9760000463575125, 0.3040000144392252, 0.0, 0.0, 0.0, 0.0, 0.0, 1.7151021894069164E9, 0.0, 2024-05-07 12:16:29.406
43.0, -283.72190028848127, -474.06597848329693, 201.1318196170032, -256.38697151234373, 0.11200000531971455, 0.9760000463575125, 0.3040000144392252, 0.0, 0.0, 0.0, 0.0, 0.0, 1.7151021894069164E9, 0.0, 2024-05-07 12:16:29.406
44.0, -315.5708883111365, -471.6350435120985, 193.5734818065539, -268.56782566802576, 0.11200000531971455, 0.9760000463575125, 0.3040000144392252, 0.0, 0.0, 0.0, 0.0, 0.0, 1.7151021894225883E9, 0.0, 2024-05-07 12:16:29.422
44.0, -311.63277365779504, -479.817944615148, 188.58071536570787, -251.9888491644524, 0.11200000531971455, 0.9760000463575125, 0.3040000144392252, 0.0, 0.0, 0.0, 0.0, 0.0, 1.7151021894225883E9, 0.0, 2024-05-07 12:16:29.422
45.0, -298.6852400111966, -467.24066106416285, 186.03758339583874, -250.97907617641613, 0.11200000531971455, 0.9760000463575125, 0.3040000144392252, 0.0, 0.0, 0.0, 0.0, 0.0, 1.7151021894231048E9, 0.0, 2024-05-07 12:16:29.423
45.0, -305.83218882652, -467.5922116599977, 184.39202741533518, -255.8446860187687, 0.11200000531971455, 0.9760000463575125, 0.3040000144392252, 0.0, 0.0, 0.0, 0.0, 0.0, 1.7151021894231048E9, 0.0, 2024-05-07 12:16:29.423
46.0, -305.03933003591374, -475.47218086663634, 202.2799689034, -246.07980723446235, 0.11200000531971455, 0.9760000463575125, 0.3040000144392252, 0.0, 0.0, 0.0, 0.0, 0.0, 1.7151021894369216E9, 0.0, 2024-05-07 12:16:29.436
46.0, -305.22258513374254, -466.16730977687985, 195.58928788267076, -252.37779875984415, 0.11200000531971455, 0.9760000463575125, 0.3040000144392252, 0.0, 0.0, 0.0, 0.0, 0.0, 1.7151021894369216E9, 0.0, 2024-05-07 12:16:29.436
47.0, -302.58969556493685, -469.46590153779835, 193.79039600398391, -254.60303923347965, 0.11200000531971455, 0.9760000463575125, 0.3040000144392252, 0.0, 0.0, 0.0, 0.0, 0.0, 1.7151021894523032E9, 0.0, 2024-05-07 12:16:29.452
47.0, -307.7170984041877, -468.65060334745795, 192.70582501683384, -257.8904112945311, 0.11200000531971455, 0.9760000463575125, 0.3040000144392252, 0.0, 0.0, 0.0, 0.0, 0.0, 1.7151021894523032E9, 0.0, 2024-05-07 12:16:29.452
48.0, -286.05933776078746, -474.90745597332716, 193.14339331164956, -254.5880796336569, 0.11200000531971455, 0.9760000463575125, 0.3040000144392252, 0.0, 0.0, 0.0, 0.0, 0.0, 1.7151021894673684E9, 0.0, 2024-05-07 12:16:29.467
48.0, -290.21062671160325, -472.43164220266044, 184.79967651050538, -246.023708735127, 0.11200000531971455, 0.9760000463575125, 0.3040000144392252, 0.0, 0.0, 0.0, 0.0, 0.0, 1.7151021894673684E9, 0.0, 2024-05-07 12:16:29.467
49.0, -306.5652092178352, -474.08841788303107, 190.1252940474078, -252.5498341578059, 0.11200000531971455, 0.9760000463575125, 0.3040000144392252, 0.0, 0.0, 0.0, 0.0, 0.0, 1.715102189468082E9, 0.0, 2024-05-07 12:16:29.468
49.0, -300.7571445866488, -467.24066106416285, 208.63405892811716, -244.55766795249656, 0.11200000531971455, 0.9760000463575125, 0.3040000144392252, 0.0, 0.0, 0.0, 0.0, 0.0, 1.715102189468082E9, 0.0, 2024-05-07 12:16:29.468
50.0, -305.0954285352491, -472.8916498972103, 198.28575575072318, -252.34787956019863, 0.11200000531971455, 0.9760000463575125, 0.3040000144392252, 0.0, 0.0, 0.0, 0.0, 0.0, 1.715102189482438E9, 0.0, 2024-05-07 12:16:29.482
50.0, -302.88514766143635, -476.32487805653363, 196.14279307611287, -271.8439780292101, 0.11200000531971455, 0.9760000463575125, 0.3040000144392252, 0.0, 0.0, 0.0, 0.0, 0.0, 1.715102189482438E9, 0.0, 2024-05-07 12:16:29.482
51.0, -309.66932618105784, -478.17612853460014, 204.1312193814665, -258.2419618903659, 0.11200000531971455, 0.9920000471174717, 0.3040000144392252, 0.0, 0.0, 0.0, 0.0, 0.0, 1.715102189483049E9, 0.0, 2024-05-07 12:16:29.483
51.0, -298.62914151186123, -482.68644788116217, 195.62668688222766, -260.9945282577537, 0.11200000531971455, 0.9920000471174717, 0.3040000144392252, 0.0, 0.0, 0.0, 0.0, 0.0, 1.715102189483049E9, 0.0, 2024-05-07 12:16:29.483
52.0, -316.93595179496333, -489.10037630517036, 190.00561724882573, -256.67868370888755, 0.11200000531971455, 0.9920000471174717, 0.3040000144392252, 0.0, 0.0, 0.0, 0.0, 0.0, 1.7151021894967787E9, 0.0, 2024-05-07 12:16:29.496
52.0, -315.66438581002876, -481.72529359254986, 189.07438215985894, -260.0670330687426, 0.11200000531971455, 0.9920000471174717, 0.3040000144392252, 0.0, 0.0, 0.0, 0.0, 0.0, 1.7151021894967787E9, 0.0, 2024-05-07 12:16:29.496
53.0, -300.6860864874907, -488.778744908981, 199.47504393663257, -259.08343938039616, 0.11200000531971455, 0.9920000471174717, 0.3040000144392252, 0.0, 0.0, 0.0, 0.0, 0.0, 1.7151021895123713E9, 0.0, 2024-05-07 12:16:29.512
53.0, -299.3172831037082, -483.21751367487013, 199.22447063960135, -256.0017618169077, 0.11200000531971455, 0.9920000471174717, 0.3040000144392252, 0.0, 0.0, 0.0, 0.0, 0.0, 1.7151021895123713E9, 0.0, 2024-05-07 12:16:29.512
54.0, -308.2706035976298, -484.8144509559497, 193.96991120185703, -254.7301958319731, 0.11200000531971455, 0.9920000471174717, 0.3040000144392252, 0.0, 0.0, 0.0, 0.0, 0.0, 1.715102189513036E9, 0.0, 2024-05-07 12:16:29.513
54.0, -298.7862173100002, -477.7834390392527, 202.7212770981714, -247.34389341948554, 0.11200000531971455, 0.9920000471174717, 0.3040000144392252, 0.0, 0.0, 0.0, 0.0, 0.0, 1.715102189513036E9, 0.0, 2024-05-07 12:16:29.513
55.0, -306.3819541200064, -471.08901811856776, 203.62259298749268, -246.4313578302972, 0.11200000531971455, 0.9920000471174717, 0.3040000144392252, 0.0, 0.0, 0.0, 0.0, 0.0, 1.7151021895267608E9, 0.0, 2024-05-07 12:16:29.526
55.0, -303.80890295049176, -478.1125502353534, 196.5354825714603, -246.88388572493568, 0.11200000531971455, 0.9920000471174717, 0.3040000144392252, 0.0, 0.0, 0.0, 0.0, 0.0, 1.7151021895267608E9, 0.0, 2024-05-07 12:16:29.526
56.0, -300.80202338611707, -476.0743047595024, 197.1338665643707, -245.97135013574734, 0.11200000531971455, 0.9920000471174717, 0.3040000144392252, 0.0, 0.0, 0.0, 0.0, 0.0, 1.7151021895435476E9, 0.0, 2024-05-07 12:16:29.543
56.0, -296.33284293906763, -484.47412005998194, 194.7216310929507, -244.5015694531612, 0.11200000531971455, 0.9920000471174717, 0.3040000144392252, 0.0, 0.0, 0.0, 0.0, 0.0, 1.7151021895435476E9, 0.0, 2024-05-07 12:16:29.543
57.0, -305.95560552505776, -474.8962362734601, 186.57612898945808, -236.89087304333225, 0.11200000531971455, 0.9920000471174717, 0.3040000144392252, 0.0, 0.0, 0.0, 0.0, 0.0, 1.7151021895437603E9, 0.0, 2024-05-07 12:16:29.543
57.0, -300.88056128518656, -480.6369827054441, 198.25957645103335, -248.37984570721164, 0.11200000531971455, 0.9920000471174717, 0.3040000144392252, 0.0, 0.0, 0.0, 0.0, 0.0, 1.7151021895437603E9, 0.0, 2024-05-07 12:16:29.543
58.0, -294.9752592551522, -481.0408919006586, 194.17186579946429, -242.64657907513902, 0.11200000531971455, 0.9920000471174717, 0.3040000144392252, 0.0, 0.0, 0.0, 0.0, 0.0, 1.7151021895567777E9, 0.0, 2024-05-07 12:16:29.556
58.0, -303.9884181483649, -476.25008005741984, 198.43535174895078, -243.37959946645424, 0.11200000531971455, 0.9920000471174717, 0.3040000144392252, 0.0, 0.0, 0.0, 0.0, 0.0, 1.7151021895567777E9, 0.0, 2024-05-07 12:16:29.556
59.0, -310.5818617702462, -475.0869711712003, 199.6882182341069, -247.3999919188209, 0.11200000531971455, 0.9920000471174717, 0.3040000144392252, 0.0, 0.0, 0.0, 0.0, 0.0, 1.7151021895729325E9, 0.0, 2024-05-07 12:16:29.572
59.0, -313.08011494064704, -473.01880649570376, 201.54694851208478, -239.3592070140876, 0.11200000531971455, 0.9920000471174717, 0.3040000144392252, 0.0, 0.0, 0.0, 0.0, 0.0, 1.7151021895729325E9, 0.0, 2024-05-07 12:16:29.572
60.0, -305.2375447335653, -474.83639787416905, 200.6905114222318, -235.9783374541439, 0.11200000531971455, 0.9920000471174717, 0.3200000151991844, 0.0, 0.0, 0.0, 0.0, 0.0, 1.7151021895731032E9, 0.0, 2024-05-07 12:16:29.573
60.0, -308.1733661987819, -487.88116891961545, 200.3576603261754, -250.78834127867594, 0.11200000531971455, 0.9920000471174717, 0.3200000151991844, 0.0, 0.0, 0.0, 0.0, 0.0, 1.7151021895731032E9, 0.0, 2024-05-07 12:16:29.573
61.0, -304.06695604743436, -481.50089959520847, 200.67555182240903, -238.18487842800096, 0.11200000531971455, 0.9760000463575125, 0.3200000151991844, 0.0, 0.0, 0.0, 0.0, 0.0, 1.7151021895867817E9, 0.0, 2024-05-07 12:16:29.586
61.0, -309.3140356852673, -496.11268872208893, 195.45091158431023, -238.04276222968474, 0.11200000531971455, 0.9760000463575125, 0.3200000151991844, 0.0, 0.0, 0.0, 0.0, 0.0, 1.7151021895867817E9, 0.0, 2024-05-07 12:16:29.586
62.0, -308.7680102917366, -492.3428695667535, 191.7184914285317, -238.22601732751355, 0.09600000455975533, 0.9760000463575125, 0.3200000151991844, 0.0, 0.0, 0.0, 0.0, 0.0, 1.7151021896023948E9, 0.0, 2024-05-07 12:16:29.602
62.0, -315.60080751078203, -484.13752906396985, 200.15944562852383, -247.2877949201502, 0.09600000455975533, 0.9760000463575125, 0.3200000151991844, 0.0, 0.0, 0.0, 0.0, 0.0, 1.7151021896023948E9, 0.0, 2024-05-07 12:16:29.602
63.0, -301.0525966831483, -489.69128049816936, 206.4723967537284, -243.2075640684925, 0.09600000455975533, 0.9760000463575125, 0.3200000151991844, 0.0, 0.0, 0.0, 0.0, 0.0, 1.71510218960309E9, 0.0, 2024-05-07 12:16:29.603
63.0, -307.62360090529546, -489.5940430993214, 206.20312395691872, -245.51134244119748, 0.09600000455975533, 0.9760000463575125, 0.3200000151991844, 0.0, 0.0, 0.0, 0.0, 0.0, 1.71510218960309E9, 0.0, 2024-05-07 12:16:29.603
64.0, -316.77887599682435, -490.2709649913013, 198.15111935231835, -248.652858403977, 0.09600000455975533, 0.9760000463575125, 0.3200000151991844, 0.0, 0.0, 0.0, 0.0, 0.0, 1.7151021896169565E9, 0.0, 2024-05-07 12:16:29.616
64.0, -304.0183373480104, -482.40221548452973, 208.69763722736388, -252.41145785944536, 0.09600000455975533, 0.9760000463575125, 0.3200000151991844, 0.0, 0.0, 0.0, 0.0, 0.0, 1.7151021896169565E9, 0.0, 2024-05-07 12:16:29.616
65.0, -295.40534775005654, -487.3762824255973, 204.0975602818653, -236.7225775453262, 0.09600000455975533, 0.9760000463575125, 0.3200000151991844, 0.0, 0.0, 0.0, 0.0, 0.0, 1.7151021896330454E9, 0.0, 2024-05-07 12:16:29.633
65.0, -310.6790991690941, -484.73591305688024, 205.64213896356523, -248.23772950889543, 0.09600000455975533, 0.9760000463575125, 0.3200000151991844, 0.0, 0.0, 0.0, 0.0, 0.0, 1.7151021896330454E9, 0.0, 2024-05-07 12:16:29.633
66.0, -306.55398951796815, -487.5744971232489, 208.6228392282501, -240.2455633035861, 0.09600000455975533, 0.9760000463575125, 0.3200000151991844, 0.0, 0.0, 0.0, 0.0, 0.0, 1.7151021896338358E9, 0.0, 2024-05-07 12:16:29.633
66.0, -310.14803337538615, -490.7795913852751, 210.27961490862072, -244.73718315036967, 0.09600000455975533, 0.9760000463575125, 0.3200000151991844, 0.0, 0.0, 0.0, 0.0, 0.0, 1.7151021896338358E9, 0.0, 2024-05-07 12:16:29.633
67.0, -316.95839119469747, -491.1610611807555, 210.08888001088053, -243.97798345936462, 0.09600000455975533, 0.9760000463575125, 0.3200000151991844, 0.0, 0.0, 0.0, 0.0, 0.0, 1.7151021896468797E9, 0.0, 2024-05-07 12:16:29.646
67.0, -319.89047275995836, -488.18036091607064, 191.3183221332729, -244.07148095825687, 0.09600000455975533, 0.9760000463575125, 0.3200000151991844, 0.0, 0.0, 0.0, 0.0, 0.0, 1.7151021896468797E9, 0.0, 2024-05-07 12:16:29.646
68.0, -314.51623652363196, -485.76438554469496, 203.6525121871382, -250.33955328399315, 0.09600000455975533, 0.9760000463575125, 0.3200000151991844, 0.0, 0.0, 0.0, 0.0, 0.0, 1.7151021896623101E9, 0.0, 2024-05-07 12:16:29.662
68.0, -300.76836428651586, -483.7149203689769, 203.31218129117042, -242.11925318138674, 0.09600000455975533, 0.9760000463575125, 0.3200000151991844, 0.0, 0.0, 0.0, 0.0, 0.0, 1.7151021896623101E9, 0.0, 2024-05-07 12:16:29.662
69.0, -316.4946436001919, -476.13414315879345, 204.11999968159944, -254.88727163011208, 0.09600000455975533, 0.9760000463575125, 0.3200000151991844, 0.0, 0.0, 0.0, 0.0, 0.0, 1.7151021896630769E9, 0.0, 2024-05-07 12:16:29.663
69.0, -307.40294680790976, -477.27481264527887, 197.87810665555298, -239.52376261213794, 0.09600000455975533, 0.9760000463575125, 0.3200000151991844, 0.0, 0.0, 0.0, 0.0, 0.0, 1.7151021896630769E9, 0.0, 2024-05-07 12:16:29.663
70.0, -312.1339202518575, -485.46893344819546, 208.41714473068714, -238.9066791194491, 0.09600000455975533, 0.9760000463575125, 0.3040000144392252, 0.0, 0.0, 0.0, 0.0, 0.0, 1.715102189676608E9, 0.0, 2024-05-07 12:16:29.676
70.0, -308.74557089200243, -477.8507572384551, 208.00201583560556, -241.93225818360224, 0.09600000455975533, 0.9760000463575125, 0.3040000144392252, 0.0, 0.0, 0.0, 0.0, 0.0, 1.715102189676608E9, 0.0, 2024-05-07 12:16:29.676
71.0, -315.1258402164094, -480.20315431058407, 207.5457480410114, -243.52919546468183, 0.09600000455975533, 0.9760000463575125, 0.3040000144392252, 0.0, 0.0, 0.0, 0.0, 0.0, 1.7151021896924803E9, 0.0, 2024-05-07 12:16:29.692
71.0, -318.6114269751124, -476.50065335445106, 209.09032672271132, -240.51857600035146, 0.09600000455975533, 0.9760000463575125, 0.3040000144392252, 0.0, 0.0, 0.0, 0.0, 0.0, 1.7151021896924803E9, 0.0, 2024-05-07 12:16:29.692
72.0, -309.0971214878373, -483.61394307017326, 203.91804508399218, -249.6888106917031, 0.09600000455975533, 0.9760000463575125, 0.3040000144392252, 0.0, 0.0, 0.0, 0.0, 0.0, 1.7151021896930027E9, 0.0, 2024-05-07 12:16:29.693
72.0, -315.43999181268737, -477.4580677431077, 196.25872997473925, -258.49253518739715, 0.09600000455975533, 0.9760000463575125, 0.3040000144392252, 0.0, 0.0, 0.0, 0.0, 0.0, 1.7151021896930027E9, 0.0, 2024-05-07 12:16:29.693
73.0, -310.40608647232875, -486.0560977412388, 202.12663300521672, -254.93589032953605, 0.09600000455975533, 0.9760000463575125, 0.3040000144392252, 0.0, 0.0, 0.0, 0.0, 0.0, 1.7151021897068102E9, 0.0, 2024-05-07 12:16:29.706
73.0, -302.51863746577874, -476.2276406576857, 202.97933019511402, -241.6854247865267, 0.09600000455975533, 0.9760000463575125, 0.3040000144392252, 0.0, 0.0, 0.0, 0.0, 0.0, 1.7151021897068102E9, 0.0, 2024-05-07 12:16:29.706
74.0, -304.9458325370215, -481.0371520007029, 199.66951873432845, -250.34703308390453, 0.09600000455975533, 0.9760000463575125, 0.3040000144392252, 0.0, 0.0, 0.0, 0.0, 0.0, 1.7151021897224536E9, 0.0, 2024-05-07 12:16:29.722
74.0, -301.65846047597006, -477.36083034425974, 200.40253912564367, -242.85975337261334, 0.09600000455975533, 0.9760000463575125, 0.3040000144392252, 0.0, 0.0, 0.0, 0.0, 0.0, 1.7151021897224536E9, 0.0, 2024-05-07 12:16:29.722
75.0, -301.538783677388, -471.08901811856776, 203.70861068647355, -244.6137664518319, 0.09600000455975533, 0.9760000463575125, 0.3040000144392252, 0.0, 0.0, 0.0, 0.0, 0.0, 1.7151021897230752E9, 0.0, 2024-05-07 12:16:29.723
75.0, -313.2745897383429, -477.0055398484692, 197.7621697569266, -251.18477067397907, 0.09600000455975533, 0.9760000463575125, 0.3040000144392252, 0.0, 0.0, 0.0, 0.0, 0.0, 1.7151021897230752E9, 0.0, 2024-05-07 12:16:29.723
76.0, -312.3059556498192, -477.38700964394957, 198.79064224474132, -249.46067679440603, 0.09600000455975533, 0.9760000463575125, 0.3040000144392252, 0.0, 0.0, 0.0, 0.0, 0.0, 1.7151021897367127E9, 0.0, 2024-05-07 12:16:29.736
76.0, -298.9769522077404, -488.2775983149186, 196.80849526822567, -244.77832204988226, 0.09600000455975533, 0.9760000463575125, 0.3040000144392252, 0.0, 0.0, 0.0, 0.0, 0.0, 1.7151021897367127E9, 0.0, 2024-05-07 12:16:29.736
77.0, -313.6485797339119, -488.6328888107091, 199.2020312398672, -248.0282951113768, 0.09600000455975533, 0.9760000463575125, 0.3040000144392252, 0.0, 0.0, 0.0, 0.0, 0.0, 1.7151021897522607E9, 0.0, 2024-05-07 12:16:29.752
77.0, -298.62540161190554, -487.4136814251542, 194.40373959671706, -250.799560978543, 0.09600000455975533, 0.9760000463575125, 0.3040000144392252, 0.0, 0.0, 0.0, 0.0, 0.0, 1.7151021897522607E9, 0.0, 2024-05-07 12:16:29.752
78.0, -290.1620080121793, -484.702253957279, 205.8366137612611, -248.7313963030465, 0.09600000455975533, 0.9760000463575125, 0.3040000144392252, 0.0, 0.0, 0.0, 0.0, 0.0, 1.7151021897530532E9, 0.0, 2024-05-07 12:16:29.753
78.0, -296.4188606380485, -478.28458563331515, 198.3493340499699, -237.08534784102812, 0.09600000455975533, 0.9760000463575125, 0.3040000144392252, 0.0, 0.0, 0.0, 0.0, 0.0, 1.7151021897530532E9, 0.0, 2024-05-07 12:16:29.753
79.0, -307.2084720102139, -488.2327195154503, 200.4287184253335, -256.0017618169077, 0.09600000455975533, 0.9760000463575125, 0.3040000144392252, 0.0, 0.0, 0.0, 0.0, 0.0, 1.7151021897668924E9, 0.0, 2024-05-07 12:16:29.766
79.0, -293.47555937292054, -479.010126224719, 196.2774294745177, -249.2849014964886, 0.09600000455975533, 0.9760000463575125, 0.3040000144392252, 0.0, 0.0, 0.0, 0.0, 0.0, 1.7151021897668924E9, 0.0, 2024-05-07 12:16:29.766
80.0, -291.6766674942337, -484.2759053623304, 212.33655988425016, -247.26535552041605, 0.09600000455975533, 0.9760000463575125, 0.288000013679266, 0.0, 0.0, 0.0, 0.0, 0.0, 1.7151021897823827E9, 0.0, 2024-05-07 12:16:29.782
80.0, -299.1190684060566, -484.10386996436864, 202.21265070419759, -257.8866713945754, 0.09600000455975533, 0.9760000463575125, 0.288000013679266, 0.0, 0.0, 0.0, 0.0, 0.0, 1.7151021897823827E9, 0.0, 2024-05-07 12:16:29.782
81.0, -294.7957440572791, -490.14006849285215, 202.00321630667895, -247.37007271917537, 0.09600000455975533, 0.9920000471174717, 0.288000013679266, 0.0, 0.0, 0.0, 0.0, 0.0, 1.715102189783024E9, 0.0, 2024-05-07 12:16:29.783
81.0, -289.87403571559116, -484.87428935524076, 192.52256991900504, -249.59157329285517, 0.09600000455975533, 0.9920000471174717, 0.288000013679266, 0.0, 0.0, 0.0, 0.0, 0.0, 1.715102189783024E9, 0.0, 2024-05-07 12:16:29.783
82.0, -300.62624808819965, -475.24404696933925, 200.76904932130128, -252.85276605421677, 0.11200000531971455, 0.9920000471174717, 0.288000013679266, 0.0, 0.0, 0.0, 0.0, 0.0, 1.7151021897967885E9, 0.0, 2024-05-07 12:16:29.796
82.0, -289.092396624852, -477.9405148373917, 184.96797200851142, -254.65165793290362, 0.11200000531971455, 0.9920000471174717, 0.288000013679266, 0.0, 0.0, 0.0, 0.0, 0.0, 1.7151021897967885E9, 0.0, 2024-05-07 12:16:29.796
83.0, -292.85099608032033, -478.744593327865, 200.51847602427006, -255.53053442249075, 0.11200000531971455, 0.9920000471174717, 0.288000013679266, 0.0, 0.0, 0.0, 0.0, 0.0, 1.715102189812569E9, 0.0, 2024-05-07 12:16:29.812
83.0, -292.1628544884734, -478.0489719361067, 202.29118860326707, -242.0220157825388, 0.11200000531971455, 0.9920000471174717, 0.288000013679266, 0.0, 0.0, 0.0, 0.0, 0.0, 1.715102189812569E9, 0.0, 2024-05-07 12:16:29.812
84.0, -292.4545666850172, -474.4212689790875, 189.2763367574662, -246.41265833051875, 0.11200000531971455, 0.9920000471174717, 0.288000013679266, 0.0, 0.0, 0.0, 0.0, 0.0, 1.715102189813111E9, 0.0, 2024-05-07 12:16:29.813
84.0, -302.44383946666494, -481.7776521919295, 205.81043446157128, -249.95808348851278, 0.11200000531971455, 0.9920000471174717, 0.288000013679266, 0.0, 0.0, 0.0, 0.0, 0.0, 1.715102189813111E9, 0.0, 2024-05-07 12:16:29.813
85.0, -297.39497452648357, -478.3668634323403, 203.73852988611907, -245.30938784359023, 0.11200000531971455, 0.9920000471174717, 0.288000013679266, 0.0, 0.0, 0.0, 0.0, 0.0, 1.715102189826714E9, 0.0, 2024-05-07 12:16:29.826
85.0, -315.1594993160106, -479.35793692059815, 184.41072691511363, -251.49518237030134, 0.11200000531971455, 0.9920000471174717, 0.288000013679266, 0.0, 0.0, 0.0, 0.0, 0.0, 1.715102189826714E9, 0.0, 2024-05-07 12:16:29.826
86.0, -305.77983022714034, -479.39907582011074, 194.4673178959638, -251.2483489732258, 0.11200000531971455, 0.9920000471174717, 0.288000013679266, 0.0, 0.0, 0.0, 0.0, 0.0, 1.7151021898423843E9, 0.0, 2024-05-07 12:16:29.842
86.0, -293.9393069674261, -488.6366287106648, 196.48686387203634, -244.27717545581982, 0.11200000531971455, 0.9920000471174717, 0.288000013679266, 0.0, 0.0, 0.0, 0.0, 0.0, 1.7151021898423843E9, 0.0, 2024-05-07 12:16:29.842
87.0, -304.5643627415411, -487.14440862834454, 187.8289954746142, -252.2543820613064, 0.11200000531971455, 0.9920000471174717, 0.288000013679266, 0.0, 0.0, 0.0, 0.0, 0.0, 1.7151021898431036E9, 0.0, 2024-05-07 12:16:29.843
87.0, -295.2632315517403, -481.5943970941007, 189.1603998588398, -247.5458480170928, 0.11200000531971455, 0.9920000471174717, 0.288000013679266, 0.0, 0.0, 0.0, 0.0, 0.0, 1.7151021898431036E9, 0.0, 2024-05-07 12:16:29.843
88.0, -291.0483643016778, -478.76329282764345, 196.36718707345426, -243.60399346379563, 0.11200000531971455, 0.9920000471174717, 0.288000013679266, 0.0, 0.0, 0.0, 0.0, 0.0, 1.715102189857066E9, 0.0, 2024-05-07 12:16:29.857
88.0, -298.54312381288037, -482.80986457969993, 193.93625210225582, -236.40842594904825, 0.11200000531971455, 0.9920000471174717, 0.288000013679266, 0.0, 0.0, 0.0, 0.0, 0.0, 1.715102189857066E9, 0.0, 2024-05-07 12:16:29.857
89.0, -302.563516265247, -490.54771758802235, 191.89052682649344, -247.81886071385816, 0.11200000531971455, 0.9920000471174717, 0.288000013679266, 0.0, 0.0, 0.0, 0.0, 0.0, 1.715102189872537E9, 0.0, 2024-05-07 12:16:29.872
89.0, -289.526225019712, -486.1271558403969, 196.93191196676344, -260.30264676595107, 0.11200000531971455, 0.9920000471174717, 0.288000013679266, 0.0, 0.0, 0.0, 0.0, 0.0, 1.715102189872537E9, 0.0, 2024-05-07 12:16:29.872
90.0, -287.39074214501306, -483.6363824699074, 202.25004970375448, -254.57685993378982, 0.11200000531971455, 0.9920000471174717, 0.3040000144392252, 0.0, 0.0, 0.0, 0.0, 0.0, 1.715102189873161E9, 0.0, 2024-05-07 12:16:29.873
90.0, -303.6518271523528, -479.54119201842695, 189.13796045910567, -265.0971985091455, 0.11200000531971455, 0.9920000471174717, 0.3040000144392252, 0.0, 0.0, 0.0, 0.0, 0.0, 1.715102189873161E9, 0.0, 2024-05-07 12:16:29.873
91.0, -307.5675024059601, -486.80781763233244, 194.92732559051365, -263.1000919328071, 0.11200000531971455, 0.9760000463575125, 0.3040000144392252, 0.0, 0.0, 0.0, 0.0, 0.0, 1.7151021898866482E9, 0.0, 2024-05-07 12:16:29.886
91.0, -283.76677908794954, -485.5250319475308, 192.0513425245881, -252.1721042622812, 0.11200000531971455, 0.9760000463575125, 0.3040000144392252, 0.0, 0.0, 0.0, 0.0, 0.0, 1.7151021898866482E9, 0.0, 2024-05-07 12:16:29.886
92.0, -295.3492492507212, -487.18180762790143, 187.46622517891228, -251.91031126538292, 0.0800000037997961, 0.9760000463575125, 0.3040000144392252, 0.0, 0.0, 0.0, 0.0, 0.0, 1.7151021899025784E9, 0.0, 2024-05-07 12:16:29.902
92.0, -299.81468979781494, -485.40161524899304, 185.73839139938354, -257.00405500503257, 0.0800000037997961, 0.9760000463575125, 0.3040000144392252, 0.0, 0.0, 0.0, 0.0, 0.0, 1.7151021899025784E9, 0.0, 2024-05-07 12:16:29.902
93.0, -289.53744471957907, -479.8216845151037, 191.65865302924067, -246.49493612954393, 0.0800000037997961, 0.9760000463575125, 0.3040000144392252, 0.0, 0.0, 0.0, 0.0, 0.0, 1.7151021899031403E9, 0.0, 2024-05-07 12:16:29.903
93.0, -300.8282026858069, -472.02773300744593, 197.3133817622438, -257.5089414990507, 0.0800000037997961, 0.9760000463575125, 0.3040000144392252, 0.0, 0.0, 0.0, 0.0, 0.0, 1.7151021899031403E9, 0.0, 2024-05-07 12:16:29.903
94.0, -305.92568632541224, -488.53939131181687, 184.48926481418312, -262.38951094122604, 0.0800000037997961, 0.9760000463575125, 0.3040000144392252, 0.0, 0.0, 0.0, 0.0, 0.0, 1.715102189916767E9, 0.0, 2024-05-07 12:16:29.916
94.0, -300.9067405848764, -481.1830080989748, 195.71270458120853, -261.0244474573992, 0.0800000037997961, 0.9760000463575125, 0.3040000144392252, 0.0, 0.0, 0.0, 0.0, 0.0, 1.715102189916767E9, 0.0, 2024-05-07 12:16:29.916
95.0, -295.76811804575846, -479.39159602019936, 213.83625976648182, -251.09501307504252, 0.0800000037997961, 0.9760000463575125, 0.3040000144392252, 0.0, 0.0, 0.0, 0.0, 0.0, 1.7151021899325325E9, 0.0, 2024-05-07 12:16:29.932
95.0, -296.7816309337504, -490.4205609895289, 199.68073843419552, -256.9591762055643, 0.0800000037997961, 0.9760000463575125, 0.3040000144392252, 0.0, 0.0, 0.0, 0.0, 0.0, 1.7151021899325325E9, 0.0, 2024-05-07 12:16:29.932
96.0, -286.50438585551456, -485.76064564473927, 190.9031932381913, -248.45838360628113, 0.0800000037997961, 0.9760000463575125, 0.3040000144392252, 0.0, 0.0, 0.0, 0.0, 0.0, 1.7151021899331844E9, 0.0, 2024-05-07 12:16:29.933
96.0, -289.09987642476335, -483.21751367487013, 205.6870177630335, -239.58360101142898, 0.0800000037997961, 0.9760000463575125, 0.3040000144392252, 0.0, 0.0, 0.0, 0.0, 0.0, 1.7151021899331844E9, 0.0, 2024-05-07 12:16:29.933
97.0, -297.522131124977, -480.03111891262233, 202.26500930357724, -231.25484381010756, 0.0800000037997961, 0.9760000463575125, 0.3040000144392252, 0.0, 0.0, 0.0, 0.0, 0.0, 1.7151021899943957E9, 0.0, 2024-05-07 12:16:29.994
97.0, -311.9506651540287, -484.03281186521053, 206.70801045093685, -246.9474640241824, 0.0800000037997961, 0.9760000463575125, 0.3040000144392252, 0.0, 0.0, 0.0, 0.0, 0.0, 1.7151021899943957E9, 0.0, 2024-05-07 12:16:29.994
98.0, -301.03015728341416, -482.05814468860626, 200.7952286209911, -244.03782185865566, 0.0800000037997961, 0.9760000463575125, 0.3040000144392252, 0.0, 0.0, 0.0, 0.0, 0.0, 1.715102189995159E9, 0.0, 2024-05-07 12:16:29.995
98.0, -293.011811778415, -479.5673713181168, 200.97474381886423, -240.7616694974713, 0.0800000037997961, 0.9760000463575125, 0.3040000144392252, 0.0, 0.0, 0.0, 0.0, 0.0, 1.715102189995159E9, 0.0, 2024-05-07 12:16:29.995
99.0, -310.5781218702905, -485.0351050533354, 191.29962263349444, -249.23254289710894, 0.0800000037997961, 0.9760000463575125, 0.3040000144392252, 0.0, 0.0, 0.0, 0.0, 0.0, 1.7151021899959495E9, 0.0, 2024-05-07 12:16:29.995
99.0, -301.07503608288243, -472.97766759619117, 198.86170034389943, -240.45499770110473, 0.0800000037997961, 0.9760000463575125, 0.3040000144392252, 0.0, 0.0, 0.0, 0.0, 0.0, 1.7151021899959495E9, 0.0, 2024-05-07 12:16:29.995
100.0, -291.0034855022095, -471.72854101099074, 204.1723582809791, -238.7608230211772, 0.0800000037997961, 0.9760000463575125, 0.3040000144392252, 0.0, 0.0, 0.0, 0.0, 0.0, 1.715102189996666E9, 0.0, 2024-05-07 12:16:29.996
100.0, -297.81010342156515, -479.2644394217059, 189.0930816596374, -248.92961100069806, 0.0800000037997961, 0.9760000463575125, 0.3040000144392252, 0.0, 0.0, 0.0, 0.0, 0.0, 1.715102189996666E9, 0.0, 2024-05-07 12:16:29.996
0.0, -294.77330465754494, -489.75298884743825, 204.03772188257426, -253.58952634548768, 0.0800000037997961, 0.9760000463575125, 0.3040000144392252, 0.0, 0.0, 0.0, 0.0, 0.0, 1.7151021900088851E9, 0.0, 2024-05-07 12:16:30.008
1.0, -296.73675213428214, -485.6166594964452, 201.80500160902739, -236.1653324519284, 0.0800000037997961, 0.9760000463575125, 0.3040000144392252, 0.0, 0.0, 0.0, 0.0, 0.0, 1.7151021900096116E9, 0.0, 2024-05-07 12:16:30.009
1.0, -306.62878751708195, -482.845393629279, 196.3110885741189, -245.6534586395137, 0.0800000037997961, 0.9760000463575125, 0.3040000144392252, 0.0, 0.0, 0.0, 0.0, 0.0, 1.7151021900096116E9, 0.0, 2024-05-07 12:16:30.009
2.0, -311.0979679641314, -482.79303502989933, 187.76541717536747, -249.71498999139294, 0.09600000455975533, 0.9760000463575125, 0.3040000144392252, 0.0, 0.0, 0.0, 0.0, 0.0, 1.715102190010147E9, 0.0, 2024-05-07 12:16:30.010
2.0, -306.00048432452604, -483.55597462086007, 200.40627902559936, -241.97713698307052, 0.09600000455975533, 0.9760000463575125, 0.3040000144392252, 0.0, 0.0, 0.0, 0.0, 0.0, 1.715102190010147E9, 0.0, 2024-05-07 12:16:30.010
3.0, -291.32885679835454, -485.0294952034019, 190.73489774018526, -242.85227357270196, 0.09600000455975533, 0.9760000463575125, 0.3040000144392252, 0.0, 0.0, 0.0, 0.0, 0.0, 1.7151021900110073E9, 0.0, 2024-05-07 12:16:30.011
3.0, -305.36470133205876, -485.4072250989266, 190.48432444315404, -253.5072485464625, 0.09600000455975533, 0.9760000463575125, 0.3040000144392252, 0.0, 0.0, 0.0, 0.0, 0.0, 1.7151021900110073E9, 0.0, 2024-05-07 12:16:30.011
4.0, -295.73445894615725, -466.58804852189496, 212.6207922808826, -239.29562871484086, 0.09600000455975533, 0.9760000463575125, 0.3040000144392252, 0.0, 0.0, 0.0, 0.0, 0.0, 1.7151021900218687E9, 0.0, 2024-05-07 12:16:30.021
4.0, -284.88126927474514, -477.8675867882557, 203.71235058642924, -238.73838362144306, 0.09600000455975533, 0.9760000463575125, 0.3040000144392252, 0.0, 0.0, 0.0, 0.0, 0.0, 1.7151021900218687E9, 0.0, 2024-05-07 12:16:30.021
5.0, -291.44105379702523, -485.2389296009205, 199.34040753822774, -247.7253632149659, 0.09600000455975533, 0.9760000463575125, 0.3040000144392252, 0.0, 0.0, 0.0, 0.0, 0.0, 1.7151021900375197E9, 0.0, 2024-05-07 12:16:30.037
5.0, -296.7255324344151, -491.26764832949266, 195.99319707788527, -241.44233128940687, 0.09600000455975533, 0.9760000463575125, 0.3040000144392252, 0.0, 0.0, 0.0, 0.0, 0.0, 1.7151021900375197E9, 0.0, 2024-05-07 12:16:30.037
6.0, -297.95595951983705, -485.51942209759727, 206.66313165146858, -234.37018047319725, 0.09600000455975533, 0.9760000463575125, 0.3040000144392252, 0.0, 0.0, 0.0, 0.0, 0.0, 1.715102190038208E9, 0.0, 2024-05-07 12:16:30.038
6.0, -297.07334313029423, -489.3528195521794, 199.84155413229018, -245.541261640843, 0.09600000455975533, 0.9760000463575125, 0.3040000144392252, 0.0, 0.0, 0.0, 0.0, 0.0, 1.715102190038208E9, 0.0, 2024-05-07 12:16:30.038
7.0, -308.07238889997825, -473.51434323983267, 198.8766599437222, -249.70003039157018, 0.09600000455975533, 0.9760000463575125, 0.3040000144392252, 0.0, 0.0, 0.0, 0.0, 0.0, 1.7151021900516703E9, 0.0, 2024-05-07 12:16:30.051
7.0, -286.53804495511577, -471.4611381641589, 199.77797583304346, -236.41216584900394, 0.09600000455975533, 0.9760000463575125, 0.3040000144392252, 0.0, 0.0, 0.0, 0.0, 0.0, 1.7151021900516703E9, 0.0, 2024-05-07 12:16:30.051
8.0, -292.14041508873925, -474.66997232614085, 202.66143869888037, -245.58614044031128, 0.09600000455975533, 0.9760000463575125, 0.3040000144392252, 0.0, 0.0, 0.0, 0.0, 0.0, 1.7151021900677557E9, 0.0, 2024-05-07 12:16:30.067
8.0, -288.4865328320302, -486.01682879170403, 203.62633288744837, -256.30469371331856, 0.09600000455975533, 0.9760000463575125, 0.3040000144392252, 0.0, 0.0, 0.0, 0.0, 0.0, 1.7151021900677557E9, 0.0, 2024-05-07 12:16:30.067
9.0, -285.4198148683645, -482.52002233313397, 207.0221620472148, -245.67215813929215, 0.09600000455975533, 0.9760000463575125, 0.3040000144392252, 0.0, 0.0, 0.0, 0.0, 0.0, 1.715102190082451E9, 0.0, 2024-05-07 12:16:30.082
9.0, -283.76303918799385, -482.49384303344414, 206.25548255629838, -243.99294305918738, 0.09600000455975533, 0.9760000463575125, 0.3040000144392252, 0.0, 0.0, 0.0, 0.0, 0.0, 1.715102190082451E9, 0.0, 2024-05-07 12:16:30.082
10.0, -304.54566324176267, -483.3689796230756, 198.10998045280576, -247.6580450157635, 0.09600000455975533, 0.9760000463575125, 0.3040000144392252, 0.0, 0.0, 0.0, 0.0, 0.0, 1.7151021900832214E9, 0.0, 2024-05-07 12:16:30.083
10.0, -292.6827005823143, -481.93659794004634, 194.717891192995, -246.8352670255117, 0.09600000455975533, 0.9760000463575125, 0.3040000144392252, 0.0, 0.0, 0.0, 0.0, 0.0, 1.7151021900832214E9, 0.0, 2024-05-07 12:16:30.083
11.0, -297.32765632728115, -484.6293259081431, 202.48566340096295, -243.05048827035353, 0.09600000455975533, 0.9920000471174717, 0.3040000144392252, 0.0, 0.0, 0.0, 0.0, 0.0, 1.7151021901139195E9, 0.0, 2024-05-07 12:16:30.113
11.0, -301.0600764830597, -472.3512343536131, 194.4673178959638, -237.79218893265352, 0.09600000455975533, 0.9920000471174717, 0.3040000144392252, 0.0, 0.0, 0.0, 0.0, 0.0, 1.7151021901139195E9, 0.0, 2024-05-07 12:16:30.113
12.0, -297.2715578279458, -480.67251175502315, 193.87641370296478, -248.44342400645837, 0.09600000455975533, 0.9920000471174717, 0.3040000144392252, 0.0, 0.0, 0.0, 0.0, 0.0, 1.7151021901145055E9, 0.0, 2024-05-07 12:16:30.114
12.0, -284.0323119848035, -487.8157206703909, 198.08380115311593, -248.70895690331236, 0.09600000455975533, 0.9920000471174717, 0.3040000144392252, 0.0, 0.0, 0.0, 0.0, 0.0, 1.7151021901145055E9, 0.0, 2024-05-07 12:16:30.114
13.0, -292.43960708519444, -490.8001608350314, 202.06679460592568, -241.0945205935277, 0.09600000455975533, 0.9920000471174717, 0.3040000144392252, 0.0, 0.0, 0.0, 0.0, 0.0, 1.7151021901152997E9, 0.0, 2024-05-07 12:16:30.115
13.0, -289.39158862130716, -495.27308118203655, 188.55453606601804, -254.659137732815, 0.09600000455975533, 0.9920000471174717, 0.3040000144392252, 0.0, 0.0, 0.0, 0.0, 0.0, 1.7151021901152997E9, 0.0, 2024-05-07 12:16:30.115
14.0, -297.8549822210334, -487.49034937424585, 202.48192350100726, -238.25219662720338, 0.09600000455975533, 0.9920000471174717, 0.3040000144392252, 0.0, 0.0, 0.0, 0.0, 0.0, 1.71510219011661E9, 0.0, 2024-05-07 12:16:30.116
14.0, -299.84086909750476, -480.9043855522759, 205.6907576629892, -246.8016079259105, 0.09600000455975533, 0.9920000471174717, 0.3040000144392252, 0.0, 0.0, 0.0, 0.0, 0.0, 1.71510219011661E9, 0.0, 2024-05-07 12:16:30.116
15.0, -307.24961090972647, -484.82754060579464, 189.15665995888412, -252.45259675895795, 0.09600000455975533, 0.9920000471174717, 0.3040000144392252, 0.0, 0.0, 0.0, 0.0, 0.0, 1.7151021901267433E9, 0.0, 2024-05-07 12:16:30.126
15.0, -290.4088414092548, -484.6667249077, 198.08380115311593, -248.1778911096044, 0.09600000455975533, 0.9920000471174717, 0.3040000144392252, 0.0, 0.0, 0.0, 0.0, 0.0, 1.7151021901267433E9, 0.0, 2024-05-07 12:16:30.126
16.0, -307.4141665077768, -479.2550896718167, 197.5714348591864, -260.8150130598806, 0.09600000455975533, 0.9920000471174717, 0.3040000144392252, 0.0, 0.0, 0.0, 0.0, 0.0, 1.7151021901416016E9, 0.0, 2024-05-07 12:16:30.141
16.0, -314.44143852451816, -478.08450098568574, 186.17221979424357, -249.89824508922175, 0.09600000455975533, 0.9920000471174717, 0.3040000144392252, 0.0, 0.0, 0.0, 0.0, 0.0, 1.7151021901416016E9, 0.0, 2024-05-07 12:16:30.141
17.0, -304.95331233693287, -491.589279725682, 184.6463406123221, -259.8426390714012, 0.09600000455975533, 0.9920000471174717, 0.3040000144392252, 0.0, 0.0, 0.0, 0.0, 0.0, 1.715102190157378E9, 0.0, 2024-05-07 12:16:30.157
17.0, -295.0762365539558, -486.70871028350666, 193.84649450331926, -258.9188837823458, 0.09600000455975533, 0.9920000471174717, 0.3040000144392252, 0.0, 0.0, 0.0, 0.0, 0.0, 1.715102190157378E9, 0.0, 2024-05-07 12:16:30.157
18.0, -305.44697913108394, -474.4193990291096, 199.059915041551, -246.8764059250243, 0.09600000455975533, 0.9920000471174717, 0.3040000144392252, 0.0, 0.0, 0.0, 0.0, 0.0, 1.7151021901582322E9, 0.0, 2024-05-07 12:16:30.158
18.0, -307.1935124103911, -475.44413161696866, 196.0156364776194, -259.68556327326223, 0.09600000455975533, 0.9920000471174717, 0.3040000144392252, 0.0, 0.0, 0.0, 0.0, 0.0, 1.7151021901582322E9, 0.0, 2024-05-07 12:16:30.158
19.0, -286.5941434544511, -478.55572838010266, 215.6538511449471, -261.9594224463217, 0.09600000455975533, 0.9920000471174717, 0.3040000144392252, 0.0, 0.0, 0.0, 0.0, 0.0, 1.715102190171933E9, 0.0, 2024-05-07 12:16:30.171
19.0, -281.05535162007436, -484.49094960978255, 196.4681643722579, -252.18332396214828, 0.09600000455975533, 0.9920000471174717, 0.3040000144392252, 0.0, 0.0, 0.0, 0.0, 0.0, 1.715102190171933E9, 0.0, 2024-05-07 12:16:30.171
20.0, -303.8350822501816, -482.85287342919037, 199.65081923455, -248.8398534017615, 0.09600000455975533, 0.9920000471174717, 0.3040000144392252, 0.0, 0.0, 0.0, 0.0, 0.0, 1.715102190187524E9, 0.0, 2024-05-07 12:16:30.187
20.0, -304.9308729371987, -475.21973761962727, 194.97594428993762, -256.4056710121222, 0.09600000455975533, 0.9920000471174717, 0.3040000144392252, 0.0, 0.0, 0.0, 0.0, 0.0, 1.715102190187524E9, 0.0, 2024-05-07 12:16:30.187
21.0, -301.14235428208485, -478.1742585846223, 201.098160517402, -247.41495151864365, 0.09600000455975533, 0.9760000463575125, 0.3040000144392252, 0.0, 0.0, 0.0, 0.0, 0.0, 1.7151021901880836E9, 0.0, 2024-05-07 12:16:30.188
21.0, -314.7630699207075, -470.2045317790471, 204.37431287858635, -247.5084490175359, 0.09600000455975533, 0.9760000463575125, 0.3040000144392252, 0.0, 0.0, 0.0, 0.0, 0.0, 1.7151021901880836E9, 0.0, 2024-05-07 12:16:30.188
22.0, -307.5076640066691, -481.2521962481551, 199.17585194017738, -256.0690800161101, 0.11200000531971455, 0.9760000463575125, 0.3040000144392252, 0.0, 0.0, 0.0, 0.0, 0.0, 1.7151021902018592E9, 0.0, 2024-05-07 12:16:30.201
22.0, -296.1533277411945, -480.7248703544028, 210.23473610915244, -244.55018815258518, 0.11200000531971455, 0.9760000463575125, 0.3040000144392252, 0.0, 0.0, 0.0, 0.0, 0.0, 1.7151021902018592E9, 0.0, 2024-05-07 12:16:30.201
23.0, -292.637821782846, -476.0574752097018, 203.02794889453799, -246.58843362843618, 0.11200000531971455, 0.9760000463575125, 0.3040000144392252, 0.0, 0.0, 0.0, 0.0, 0.0, 1.7151021902180166E9, 0.0, 2024-05-07 12:16:30.218
23.0, -295.91397414403036, -482.70327743096277, 197.26850296277553, -246.16582493344322, 0.11200000531971455, 0.9760000463575125, 0.3040000144392252, 0.0, 0.0, 0.0, 0.0, 0.0, 1.7151021902180166E9, 0.0, 2024-05-07 12:16:30.218
24.0, -304.21655204566196, -481.8019615416415, 201.1280797170475, -243.58529396401718, 0.11200000531971455, 0.9760000463575125, 0.3040000144392252, 0.0, 0.0, 0.0, 0.0, 0.0, 1.7151021902180896E9, 0.0, 2024-05-07 12:16:30.218
24.0, -298.85353550920263, -476.41276570549235, 209.61017281655222, -236.95819124253467, 0.11200000531971455, 0.9760000463575125, 0.3040000144392252, 0.0, 0.0, 0.0, 0.0, 0.0, 1.7151021902180896E9, 0.0, 2024-05-07 12:16:30.218
25.0, -301.62106147641316, -484.4685102100484, 193.38274690881371, -247.7328430148773, 0.11200000531971455, 0.9760000463575125, 0.3040000144392252, 0.0, 0.0, 0.0, 0.0, 0.0, 1.7151021902316527E9, 0.0, 2024-05-07 12:16:30.231
25.0, -300.21859899302945, -488.64223856059834, 204.82310087326914, -247.34015351952985, 0.11200000531971455, 0.9760000463575125, 0.3040000144392252, 0.0, 0.0, 0.0, 0.0, 0.0, 1.7151021902316527E9, 0.0, 2024-05-07 12:16:30.231
26.0, -309.88624037848786, -481.8730196407996, 200.37635982595384, -243.3197610671632, 0.11200000531971455, 0.9760000463575125, 0.3040000144392252, 0.0, 0.0, 0.0, 0.0, 0.0, 1.715102190247388E9, 0.0, 2024-05-07 12:16:30.247
26.0, -298.03823731886223, -483.04734822688624, 201.33751411456615, -246.20322393300012, 0.11200000531971455, 0.9760000463575125, 0.3040000144392252, 0.0, 0.0, 0.0, 0.0, 0.0, 1.715102190247388E9, 0.0, 2024-05-07 12:16:30.247
27.0, -311.0156901651062, -476.6895183022134, 198.7644629450515, -243.6563520631753, 0.11200000531971455, 0.9760000463575125, 0.3040000144392252, 0.0, 0.0, 0.0, 0.0, 0.0, 1.7151021902481675E9, 0.0, 2024-05-07 12:16:30.248
27.0, -309.51973018283024, -479.0531350742094, 207.44103084225208, -243.60773336375132, 0.11200000531971455, 0.9760000463575125, 0.3040000144392252, 0.0, 0.0, 0.0, 0.0, 0.0, 1.7151021902481675E9, 0.0, 2024-05-07 12:16:30.248
28.0, -295.85039584478363, -479.40842556999996, 202.12289310526103, -240.85890689631924, 0.11200000531971455, 0.9760000463575125, 0.3040000144392252, 0.0, 0.0, 0.0, 0.0, 0.0, 1.715102190261776E9, 0.0, 2024-05-07 12:16:30.261
28.0, -317.3847397896461, -476.0200762101449, 196.56166187115014, -246.96990342391655, 0.11200000531971455, 0.9760000463575125, 0.3040000144392252, 0.0, 0.0, 0.0, 0.0, 0.0, 1.715102190261776E9, 0.0, 2024-05-07 12:16:30.261
29.0, -307.4590453072451, -492.3634390165098, 202.3547669025138, -251.12119237473235, 0.11200000531971455, 0.9760000463575125, 0.3040000144392252, 0.0, 0.0, 0.0, 0.0, 0.0, 1.715102190277086E9, 0.0, 2024-05-07 12:16:30.277
29.0, -317.6053938870318, -487.16497807810083, 198.36055374983698, -244.66238515125588, 0.11200000531971455, 0.9760000463575125, 0.3040000144392252, 0.0, 0.0, 0.0, 0.0, 0.0, 1.715102190277086E9, 0.0, 2024-05-07 12:16:30.277
30.0, -313.768256532494, -481.71594384266064, 195.77254298049957, -253.67180414451286, 0.11200000531971455, 0.9760000463575125, 0.3040000144392252, 0.0, 0.0, 0.0, 0.0, 0.0, 1.715102190292775E9, 0.0, 2024-05-07 12:16:30.292
30.0, -300.2821772922762, -483.6906110192649, 194.14942639973015, -245.8367137373425, 0.11200000531971455, 0.9760000463575125, 0.3040000144392252, 0.0, 0.0, 0.0, 0.0, 0.0, 1.715102190292775E9, 0.0, 2024-05-07 12:16:30.292
31.0, -318.0691414815374, -471.77902966039255, 196.81223516818136, -235.11816046433523, 0.11200000531971455, 0.9920000471174717, 0.3040000144392252, 0.0, 0.0, 0.0, 0.0, 0.0, 1.7151021902930255E9, 0.0, 2024-05-07 12:16:30.293
31.0, -311.8796070548706, -468.0615691044368, 195.83986117970198, -248.45090380636975, 0.11200000531971455, 0.9920000471174717, 0.3040000144392252, 0.0, 0.0, 0.0, 0.0, 0.0, 1.7151021902930255E9, 0.0, 2024-05-07 12:16:30.293
32.0, -313.66727923369035, -473.0917345448397, 189.9083798499778, -251.67469756817445, 0.11200000531971455, 0.9920000471174717, 0.3040000144392252, 0.0, 0.0, 0.0, 0.0, 0.0, 1.715102190307342E9, 0.0, 2024-05-07 12:16:30.307
32.0, -296.50861823698506, -478.56694807996973, 200.26416282728314, -235.54450905928388, 0.11200000531971455, 0.9920000471174717, 0.3040000144392252, 0.0, 0.0, 0.0, 0.0, 0.0, 1.715102190307342E9, 0.0, 2024-05-07 12:16:30.307
33.0, -300.5589298889972, -465.2790835374035, 208.6564983278513, -225.14010738255456, 0.11200000531971455, 0.9920000471174717, 0.3040000144392252, 0.0, 0.0, 0.0, 0.0, 0.0, 1.715102190308041E9, 0.0, 2024-05-07 12:16:30.308
33.0, -308.40150009607896, -478.2565363836475, 204.5089492769912, -252.837806454394, 0.11200000531971455, 0.9920000471174717, 0.3040000144392252, 0.0, 0.0, 0.0, 0.0, 0.0, 1.715102190308041E9, 0.0, 2024-05-07 12:16:30.308
34.0, -289.58980331895873, -480.5154359568842, 217.12363182753325, -249.33352019591257, 0.11200000531971455, 0.9920000471174717, 0.3040000144392252, 0.0, 0.0, 0.0, 0.0, 0.0, 1.7151021903216383E9, 0.0, 2024-05-07 12:16:30.321
34.0, -307.8292954028584, -477.6057937913574, 208.08055373467505, -236.97689074231312, 0.11200000531971455, 0.9920000471174717, 0.3040000144392252, 0.0, 0.0, 0.0, 0.0, 0.0, 1.7151021903216383E9, 0.0, 2024-05-07 12:16:30.321
35.0, -321.0909806457348, -482.1011535380967, 191.28466303367168, -247.14567872183397, 0.11200000531971455, 0.9920000471174717, 0.3040000144392252, 0.0, 0.0, 0.0, 0.0, 0.0, 1.715102190337409E9, 0.0, 2024-05-07 12:16:30.337
35.0, -306.29593642102554, -479.49444326898083, 193.40518630854785, -248.04325471119955, 0.11200000531971455, 0.9920000471174717, 0.3040000144392252, 0.0, 0.0, 0.0, 0.0, 0.0, 1.715102190337409E9, 0.0, 2024-05-07 12:16:30.337
36.0, -296.95740623166785, -483.6457322197966, 205.62717936374247, -246.4313578302972, 0.11200000531971455, 0.9920000471174717, 0.3040000144392252, 0.0, 0.0, 0.0, 0.0, 0.0, 1.715102190338097E9, 0.0, 2024-05-07 12:16:30.338
36.0, -286.4482873561792, -474.6811920260079, 203.86194658465683, -246.12468603393063, 0.11200000531971455, 0.9920000471174717, 0.3040000144392252, 0.0, 0.0, 0.0, 0.0, 0.0, 1.715102190338097E9, 0.0, 2024-05-07 12:16:30.338
37.0, -309.37387408455834, -479.9095721640624, 195.3200150858611, -244.69604425085708, 0.11200000531971455, 0.9920000471174717, 0.3040000144392252, 0.0, 0.0, 0.0, 0.0, 0.0, 1.7151021903518496E9, 0.0, 2024-05-07 12:16:30.351
37.0, -306.5988683174364, -476.5324425040744, 200.78774882107973, -231.71485150465742, 0.11200000531971455, 0.9920000471174717, 0.3040000144392252, 0.0, 0.0, 0.0, 0.0, 0.0, 1.7151021903518496E9, 0.0, 2024-05-07 12:16:30.351
38.0, -316.07203490519896, -474.48671722831205, 201.04954181797802, -226.81558256270364, 0.11200000531971455, 0.9920000471174717, 0.3040000144392252, 0.0, 0.0, 0.0, 0.0, 0.0, 1.7151021903673885E9, 0.0, 2024-05-07 12:16:30.367
38.0, -318.21873747976497, -487.5913266730495, 190.66383964102715, -244.2098572566174, 0.11200000531971455, 0.9920000471174717, 0.3040000144392252, 0.0, 0.0, 0.0, 0.0, 0.0, 1.7151021903673885E9, 0.0, 2024-05-07 12:16:30.367
39.0, -298.95077290805057, -485.7625155947171, 202.79233519732952, -241.27029589144513, 0.11200000531971455, 0.9920000471174717, 0.3040000144392252, 0.0, 0.0, 0.0, 0.0, 0.0, 1.7151021903681252E9, 0.0, 2024-05-07 12:16:30.368
39.0, -296.0934893419035, -477.14952599676326, 199.86025363206863, -246.3528199312277, 0.11200000531971455, 0.9920000471174717, 0.3040000144392252, 0.0, 0.0, 0.0, 0.0, 0.0, 1.7151021903681252E9, 0.0, 2024-05-07 12:16:30.368
40.0, -300.00168479559943, -476.19211160810664, 192.02890312485397, -251.49518237030134, 0.11200000531971455, 0.9920000471174717, 0.3200000151991844, 0.0, 0.0, 0.0, 0.0, 0.0, 1.715102190382252E9, 0.0, 2024-05-07 12:16:30.382
40.0, -312.055382352788, -476.573581403587, 206.81646754965186, -236.78989574452862, 0.11200000531971455, 0.9920000471174717, 0.3200000151991844, 0.0, 0.0, 0.0, 0.0, 0.0, 1.715102190382252E9, 0.0, 2024-05-07 12:16:30.382
41.0, -314.3442011256702, -479.30744827119634, 207.63550563994795, -242.803654873278, 0.11200000531971455, 0.9760000463575125, 0.3200000151991844, 0.0, 0.0, 0.0, 0.0, 0.0, 1.715102190397378E9, 0.0, 2024-05-07 12:16:30.397
41.0, -308.11726769944653, -471.7565902606584, 205.17839136905968, -238.22975722746924, 0.11200000531971455, 0.9760000463575125, 0.3200000151991844, 0.0, 0.0, 0.0, 0.0, 0.0, 1.715102190397378E9, 0.0, 2024-05-07 12:16:30.397
42.0, -322.9534508236684, -473.81353523628786, 208.03193503525108, -248.46212350623682, 0.09600000455975533, 0.9760000463575125, 0.3200000151991844, 0.0, 0.0, 0.0, 0.0, 0.0, 1.7151021903981571E9, 0.0, 2024-05-07 12:16:30.398
42.0, -310.3537278729491, -465.1182678393088, 209.41195811890066, -240.99354329472408, 0.09600000455975533, 0.9760000463575125, 0.3200000151991844, 0.0, 0.0, 0.0, 0.0, 0.0, 1.7151021903981571E9, 0.0, 2024-05-07 12:16:30.398
43.0, -307.5076640066691, -464.4563055471517, 212.2505421852693, -238.69724472193047, 0.09600000455975533, 0.9760000463575125, 0.3200000151991844, 0.0, 0.0, 0.0, 0.0, 0.0, 1.715102190411605E9, 0.0, 2024-05-07 12:16:30.411
43.0, -295.5624235481955, -482.8042547297664, 210.216036609374, -241.4685105890967, 0.09600000455975533, 0.9760000463575125, 0.3200000151991844, 0.0, 0.0, 0.0, 0.0, 0.0, 1.715102190411605E9, 0.0, 2024-05-07 12:16:30.411
44.0, -299.0592300067656, -470.8253551716916, 205.67579806316644, -234.38514007302, 0.09600000455975533, 0.9760000463575125, 0.3200000151991844, 0.0, 0.0, 0.0, 0.0, 0.0, 1.7151021904442246E9, 0.0, 2024-05-07 12:16:30.444
44.0, -307.36180790839717, -467.9792913054116, 206.7977680498734, -231.82330860337242, 0.09600000455975533, 0.9760000463575125, 0.3200000151991844, 0.0, 0.0, 0.0, 0.0, 0.0, 1.7151021904442246E9, 0.0, 2024-05-07 12:16:30.444
45.0, -323.40597871830687, -480.29478185949847, 190.28610974550247, -249.89076528931037, 0.09600000455975533, 0.9760000463575125, 0.3200000151991844, 0.0, 0.0, 0.0, 0.0, 0.0, 1.7151021904444928E9, 0.0, 2024-05-07 12:16:30.444
45.0, -313.9365520305, -461.25869108503684, 204.07512088213116, -233.89521317882463, 0.09600000455975533, 0.9760000463575125, 0.3200000151991844, 0.0, 0.0, 0.0, 0.0, 0.0, 1.7151021904444928E9, 0.0, 2024-05-07 12:16:30.444
46.0, -309.8413615790196, -466.33373532490805, 208.0955133344978, -231.32590190926567, 0.09600000455975533, 0.9760000463575125, 0.3200000151991844, 0.0, 0.0, 0.0, 0.0, 0.0, 1.715102190445233E9, 0.0, 2024-05-07 12:16:30.445
46.0, -314.0113500296138, -465.6530735329725, 207.36997274309397, -235.93719855463132, 0.09600000455975533, 0.9760000463575125, 0.3200000151991844, 0.0, 0.0, 0.0, 0.0, 0.0, 1.715102190445233E9, 0.0, 2024-05-07 12:16:30.445
47.0, -308.1322272992693, -467.4183063120581, 206.74540945049375, -234.15700617572293, 0.09600000455975533, 0.9760000463575125, 0.3200000151991844, 0.0, 0.0, 0.0, 0.0, 0.0, 1.715102190445964E9, 0.0, 2024-05-07 12:16:30.445
47.0, -306.157560122665, -461.92439327714965, 217.8080335194245, -230.7200381164439, 0.09600000455975533, 0.9760000463575125, 0.3200000151991844, 0.0, 0.0, 0.0, 0.0, 0.0, 1.715102190445964E9, 0.0, 2024-05-07 12:16:30.445
48.0, -312.06660205265507, -468.4953974992968, 210.16741790995002, -228.2404844458215, 0.09600000455975533, 0.9760000463575125, 0.3200000151991844, 0.0, 0.0, 0.0, 0.0, 0.0, 1.7151021904568255E9, 0.0, 2024-05-07 12:16:30.456
48.0, -300.5402303892188, -490.15689804265276, 191.29588273353875, -251.1398918745108, 0.09600000455975533, 0.9760000463575125, 0.3200000151991844, 0.0, 0.0, 0.0, 0.0, 0.0, 1.7151021904568255E9, 0.0, 2024-05-07 12:16:30.456
49.0, -302.28676366852596, -471.07966836867854, 205.70571726281196, -235.83996115578339, 0.09600000455975533, 0.9760000463575125, 0.3200000151991844, 0.0, 0.0, 0.0, 0.0, 0.0, 1.7151021904718184E9, 0.0, 2024-05-07 12:16:30.471
49.0, -309.4524119836278, -467.29862951347604, 204.74456297419965, -238.70472452184185, 0.09600000455975533, 0.9760000463575125, 0.3200000151991844, 0.0, 0.0, 0.0, 0.0, 0.0, 1.7151021904718184E9, 0.0, 2024-05-07 12:16:30.471
50.0, -324.78974170191213, -478.1368595850654, 196.81597506813705, -244.05278145847842, 0.09600000455975533, 0.9760000463575125, 0.3040000144392252, 0.0, 0.0, 0.0, 0.0, 0.0, 1.715102190487493E9, 0.0, 2024-05-07 12:16:30.487
50.0, -308.4688182952814, -483.219383624848, 205.18213126901537, -236.3934663492255, 0.09600000455975533, 0.9760000463575125, 0.3040000144392252, 0.0, 0.0, 0.0, 0.0, 0.0, 1.715102190487493E9, 0.0, 2024-05-07 12:16:30.487
51.0, -315.3464943137951, -479.3298876709305, 198.30819515045732, -244.92417814815417, 0.09600000455975533, 0.9760000463575125, 0.3040000144392252, 0.0, 0.0, 0.0, 0.0, 0.0, 1.7151021904881456E9, 0.0, 2024-05-07 12:16:30.488
51.0, -314.0300495293923, -481.8094413415529, 204.01154258288443, -254.38612503604963, 0.09600000455975533, 0.9760000463575125, 0.3040000144392252, 0.0, 0.0, 0.0, 0.0, 0.0, 1.7151021904881456E9, 0.0, 2024-05-07 12:16:30.488
52.0, -322.3251476311125, -484.74526280676946, 194.3177218977362, -257.2247091024183, 0.11200000531971455, 0.9760000463575125, 0.3040000144392252, 0.0, 0.0, 0.0, 0.0, 0.0, 1.7151021905017817E9, 0.0, 2024-05-07 12:16:30.501
52.0, -315.2529968149029, -468.74597079632804, 200.40627902559936, -249.90198498917744, 0.11200000531971455, 0.9760000463575125, 0.3040000144392252, 0.0, 0.0, 0.0, 0.0, 0.0, 1.7151021905017817E9, 0.0, 2024-05-07 12:16:30.501
53.0, -313.6485797339119, -471.1619461677037, 194.29154259804636, -242.52316237660125, 0.11200000531971455, 0.9760000463575125, 0.3040000144392252, 0.0, 0.0, 0.0, 0.0, 0.0, 1.715102190533846E9, 0.0, 2024-05-07 12:16:30.533
53.0, -318.15889908047393, -482.2395298364572, 191.0490493364632, -253.477329346817, 0.11200000531971455, 0.9760000463575125, 0.3040000144392252, 0.0, 0.0, 0.0, 0.0, 0.0, 1.715102190533846E9, 0.0, 2024-05-07 12:16:30.533
54.0, -322.5383219285868, -469.9389988821931, 195.37985348515213, -243.21878376835957, 0.11200000531971455, 0.9760000463575125, 0.3040000144392252, 0.0, 0.0, 0.0, 0.0, 0.0, 1.7151021905346649E9, 0.0, 2024-05-07 12:16:30.534
54.0, -302.9823850602843, -476.10983380908147, 196.16149257589132, -240.8402073965408, 0.11200000531971455, 0.9760000463575125, 0.3040000144392252, 0.0, 0.0, 0.0, 0.0, 0.0, 1.7151021905346649E9, 0.0, 2024-05-07 12:16:30.534
55.0, -315.85512070776895, -489.64453174872324, 191.56515553034842, -254.30758713698015, 0.11200000531971455, 0.9760000463575125, 0.3040000144392252, 0.0, 0.0, 0.0, 0.0, 0.0, 1.715102190535342E9, 0.0, 2024-05-07 12:16:30.535
55.0, -316.14309300435707, -482.6209996319376, 195.4247322846204, -250.93793727690354, 0.11200000531971455, 0.9760000463575125, 0.3040000144392252, 0.0, 0.0, 0.0, 0.0, 0.0, 1.715102190535342E9, 0.0, 2024-05-07 12:16:30.535
56.0, -309.69924538070336, -484.78266180632636, 194.25414359848946, -254.04579414008185, 0.11200000531971455, 0.9760000463575125, 0.3040000144392252, 0.0, 0.0, 0.0, 0.0, 0.0, 1.7151021905359452E9, 0.0, 2024-05-07 12:16:30.535
56.0, -301.91651357291266, -490.85999923432246, 192.96013821382076, -248.07691381080076, 0.11200000531971455, 0.9760000463575125, 0.3040000144392252, 0.0, 0.0, 0.0, 0.0, 0.0, 1.7151021905359452E9, 0.0, 2024-05-07 12:16:30.535
57.0, -315.9560980065726, -489.9512035450898, 183.24387812893838, -251.42412427114323, 0.11200000531971455, 0.9760000463575125, 0.3040000144392252, 0.0, 0.0, 0.0, 0.0, 0.0, 1.7151021905467606E9, 0.0, 2024-05-07 12:16:30.546
57.0, -320.9189452477731, -484.3151743118651, 205.23074996843934, -242.4259249777533, 0.11200000531971455, 0.9760000463575125, 0.3040000144392252, 0.0, 0.0, 0.0, 0.0, 0.0, 1.7151021905467606E9, 0.0, 2024-05-07 12:16:30.546
58.0, -321.281715543475, -484.992096203845, 199.78919553291053, -247.845040013548, 0.11200000531971455, 0.9760000463575125, 0.3040000144392252, 0.0, 0.0, 0.0, 0.0, 0.0, 1.7151021905616355E9, 0.0, 2024-05-07 12:16:30.561
58.0, -312.9454785422422, -491.67903732461855, 193.162092811428, -254.45718313520774, 0.11200000531971455, 0.9760000463575125, 0.3040000144392252, 0.0, 0.0, 0.0, 0.0, 0.0, 1.7151021905616355E9, 0.0, 2024-05-07 12:16:30.561
59.0, -310.14429347543046, -487.52026857389137, 187.30166958086193, -241.947217783425, 0.11200000531971455, 0.9760000463575125, 0.3040000144392252, 0.0, 0.0, 0.0, 0.0, 0.0, 1.7151021905775585E9, 0.0, 2024-05-07 12:16:30.577
59.0, -302.10724847065285, -483.8888257169165, 192.80306241568178, -257.44910309975967, 0.11200000531971455, 0.9760000463575125, 0.3040000144392252, 0.0, 0.0, 0.0, 0.0, 0.0, 1.7151021905775585E9, 0.0, 2024-05-07 12:16:30.577
60.0, -316.55448199948296, -486.81716738222167, 186.76686388719827, -261.60413195053115, 0.11200000531971455, 0.9760000463575125, 0.3040000144392252, 0.0, 0.0, 0.0, 0.0, 0.0, 1.7151021905786033E9, 0.0, 2024-05-07 12:16:30.578
60.0, -303.88370094960555, -480.41819855803624, 184.72861841134727, -260.0034547694959, 0.11200000531971455, 0.9760000463575125, 0.3040000144392252, 0.0, 0.0, 0.0, 0.0, 0.0, 1.7151021905786033E9, 0.0, 2024-05-07 12:16:30.578
61.0, -313.33442813763395, -488.41784456325695, 178.69241988286376, -259.3938510767184, 0.11200000531971455, 0.9760000463575125, 0.3040000144392252, 0.0, 0.0, 0.0, 0.0, 0.0, 1.7151021905917208E9, 0.0, 2024-05-07 12:16:30.591
61.0, -311.92822575429454, -487.75214237114415, 183.41217362694442, -255.41833742382005, 0.11200000531971455, 0.9760000463575125, 0.3040000144392252, 0.0, 0.0, 0.0, 0.0, 0.0, 1.7151021905917208E9, 0.0, 2024-05-07 12:16:30.591
62.0, -319.75209646159783, -485.9869095920585, 193.64080000575632, -261.68640974955633, 0.11200000531971455, 0.9760000463575125, 0.3040000144392252, 0.0, 0.0, 0.0, 0.0, 0.0, 1.7151021906075425E9, 0.0, 2024-05-07 12:16:30.607
62.0, -310.99325076537207, -487.6137660727836, 201.28889541514218, -250.6537048802711, 0.11200000531971455, 0.9760000463575125, 0.3040000144392252, 0.0, 0.0, 0.0, 0.0, 0.0, 1.7151021906075425E9, 0.0, 2024-05-07 12:16:30.607
63.0, -305.192665934097, -485.8522731936537, 196.7598765688017, -256.0765598160215, 0.11200000531971455, 0.9760000463575125, 0.3040000144392252, 0.0, 0.0, 0.0, 0.0, 0.0, 1.715102190608202E9, 0.0, 2024-05-07 12:16:30.608
63.0, -312.77718304423615, -490.11949904309586, 187.58216207753867, -268.71742166625336, 0.11200000531971455, 0.9760000463575125, 0.3040000144392252, 0.0, 0.0, 0.0, 0.0, 0.0, 1.715102190608202E9, 0.0, 2024-05-07 12:16:30.608
64.0, -311.0119502651505, -494.7270557885058, 187.67191967647523, -265.5160673041828, 0.11200000531971455, 0.9760000463575125, 0.3040000144392252, 0.0, 0.0, 0.0, 0.0, 0.0, 1.7151021906380103E9, 0.0, 2024-05-07 12:16:30.638
64.0, -313.5737817347981, -490.97967603290454, 189.6054479535669, -263.5563597274013, 0.11200000531971455, 0.9760000463575125, 0.3040000144392252, 0.0, 0.0, 0.0, 0.0, 0.0, 1.7151021906380103E9, 0.0, 2024-05-07 12:16:30.638
65.0, -327.8078409661539, -497.61425855429843, 168.31419750582427, -277.13219656655565, 0.11200000531971455, 0.9760000463575125, 0.3040000144392252, 0.0, 0.0, 0.0, 0.0, 0.0, 1.7151021906387818E9, 0.0, 2024-05-07 12:16:30.638
65.0, -311.415859460365, -486.48431628616527, 192.63102701772004, -259.5397071749903, 0.11200000531971455, 0.9760000463575125, 0.3040000144392252, 0.0, 0.0, 0.0, 0.0, 0.0, 1.7151021906387818E9, 0.0, 2024-05-07 12:16:30.638
66.0, -289.69078061776236, -473.41336594102904, 205.74685616232455, -236.7188376453705, 0.11200000531971455, 0.9760000463575125, 0.3040000144392252, 0.0, 0.0, 0.0, 0.0, 0.0, 1.7151021906396437E9, 0.0, 2024-05-07 12:16:30.639
66.0, -301.32560937991366, -470.18957217922434, 210.45539020653814, -237.16014584014192, 0.11200000531971455, 0.9760000463575125, 0.3040000144392252, 0.0, 0.0, 0.0, 0.0, 0.0, 1.7151021906396437E9, 0.0, 2024-05-07 12:16:30.639
67.0, -294.5227313605137, -466.48333132313564, 206.96232364792377, -239.74815660947934, 0.11200000531971455, 0.9760000463575125, 0.3040000144392252, 0.0, 0.0, 0.0, 0.0, 0.0, 1.7151021906517904E9, 0.0, 2024-05-07 12:16:30.651
67.0, -286.8634162512608, -469.011503693182, 227.35225820634514, -240.1296264049597, 0.11200000531971455, 0.9760000463575125, 0.3040000144392252, 0.0, 0.0, 0.0, 0.0, 0.0, 1.7151021906517904E9, 0.0, 2024-05-07 12:16:30.651
68.0, -292.1628544884734, -462.81822936655954, 222.50160796381533, -229.84490152681246, 0.11200000531971455, 0.9760000463575125, 0.3040000144392252, 0.0, 0.0, 0.0, 0.0, 0.0, 1.715102190667303E9, 0.0, 2024-05-07 12:16:30.667
68.0, -294.8705420563929, -468.5327964988537, 209.8046476142481, -236.00077685387805, 0.11200000531971455, 0.9760000463575125, 0.3040000144392252, 0.0, 0.0, 0.0, 0.0, 0.0, 1.715102190667303E9, 0.0, 2024-05-07 12:16:30.667
69.0, -283.10107689583674, -462.571395969484, 210.6162059046328, -234.5796148707159, 0.11200000531971455, 0.9760000463575125, 0.3040000144392252, 0.0, 0.0, 0.0, 0.0, 0.0, 1.7151021906681397E9, 0.0, 2024-05-07 12:16:30.668
69.0, -278.8824697458185, -471.6069942624308, 218.1072255158797, -235.11068066442385, 0.11200000531971455, 0.9760000463575125, 0.3040000144392252, 0.0, 0.0, 0.0, 0.0, 0.0, 1.7151021906681397E9, 0.0, 2024-05-07 12:16:30.668
70.0, -287.0017925496213, -469.44907198799774, 212.254282085225, -252.49373565847054, 0.11200000531971455, 0.9760000463575125, 0.3040000144392252, 0.0, 0.0, 0.0, 0.0, 0.0, 1.7151021906819077E9, 0.0, 2024-05-07 12:16:30.681
70.0, -292.1217155889608, -470.4251858764328, 211.78305469080806, -233.794235880021, 0.11200000531971455, 0.9760000463575125, 0.3040000144392252, 0.0, 0.0, 0.0, 0.0, 0.0, 1.7151021906819077E9, 0.0, 2024-05-07 12:16:30.681
71.0, -289.27939162263647, -458.1321347220801, 208.0281951352954, -226.92777956137434, 0.11200000531971455, 0.9760000463575125, 0.3040000144392252, 0.0, 0.0, 0.0, 0.0, 0.0, 1.7151021906973832E9, 0.0, 2024-05-07 12:16:30.697
71.0, -288.6062096306123, -466.78252331959084, 210.6236857045442, -234.47489767195657, 0.11200000531971455, 0.9760000463575125, 0.3040000144392252, 0.0, 0.0, 0.0, 0.0, 0.0, 1.7151021906973832E9, 0.0, 2024-05-07 12:16:30.697
72.0, -289.20833352347836, -482.55742133269086, 205.5037626652047, -237.25364333903417, 0.11200000531971455, 0.9760000463575125, 0.3040000144392252, 0.0, 0.0, 0.0, 0.0, 0.0, 1.7151021906981106E9, 0.0, 2024-05-07 12:16:30.698
72.0, -291.54203109582886, -474.4642778285779, 214.1055325632915, -235.48841055994853, 0.11200000531971455, 0.9760000463575125, 0.3040000144392252, 0.0, 0.0, 0.0, 0.0, 0.0, 1.7151021906981106E9, 0.0, 2024-05-07 12:16:30.698
73.0, -291.61308919498697, -475.92283881129697, 212.86762567795813, -225.532796877902, 0.11200000531971455, 0.9760000463575125, 0.3040000144392252, 0.0, 0.0, 0.0, 0.0, 0.0, 1.7151021907117016E9, 0.0, 2024-05-07 12:16:30.711
73.0, -305.0954285352491, -481.96651713969186, 208.8023544261232, -246.7305498267524, 0.11200000531971455, 0.9760000463575125, 0.3040000144392252, 0.0, 0.0, 0.0, 0.0, 0.0, 1.7151021907117016E9, 0.0, 2024-05-07 12:16:30.711
74.0, -299.20882600499317, -485.55682109715417, 207.99453603569418, -243.56285456428304, 0.11200000531971455, 0.9760000463575125, 0.3040000144392252, 0.0, 0.0, 0.0, 0.0, 0.0, 1.7151021907275114E9, 0.0, 2024-05-07 12:16:30.727
74.0, -296.88260823255405, -479.3485871707089, 200.2828623270616, -253.22301614983007, 0.11200000531971455, 0.9760000463575125, 0.3040000144392252, 0.0, 0.0, 0.0, 0.0, 0.0, 1.7151021907275114E9, 0.0, 2024-05-07 12:16:30.727
75.0, -299.3359826034866, -490.48600923875347, 192.28695622179657, -251.52884146990255, 0.11200000531971455, 0.9760000463575125, 0.3040000144392252, 0.0, 0.0, 0.0, 0.0, 0.0, 1.715102190728094E9, 0.0, 2024-05-07 12:16:30.728
75.0, -312.1675793514587, -479.8347741649486, 193.32290850952268, -243.1701650689356, 0.11200000531971455, 0.9760000463575125, 0.3040000144392252, 0.0, 0.0, 0.0, 0.0, 0.0, 1.715102190728094E9, 0.0, 2024-05-07 12:16:30.728
76.0, -303.528410453815, -483.7280100188218, 194.93106549046934, -250.2123966854997, 0.11200000531971455, 0.9760000463575125, 0.3040000144392252, 0.0, 0.0, 0.0, 0.0, 0.0, 1.7151021907417397E9, 0.0, 2024-05-07 12:16:30.741
76.0, -304.6765597402118, -484.11695961421356, 199.28804893884808, -249.0231084995903, 0.11200000531971455, 0.9760000463575125, 0.3040000144392252, 0.0, 0.0, 0.0, 0.0, 0.0, 1.7151021907417397E9, 0.0, 2024-05-07 12:16:30.741
77.0, -307.33562860870734, -484.86119970539585, 199.10853374097496, -249.24002269702032, 0.11200000531971455, 0.9760000463575125, 0.3040000144392252, 0.0, 0.0, 0.0, 0.0, 0.0, 1.715102190757344E9, 0.0, 2024-05-07 12:16:30.757
77.0, -290.68933390593156, -479.2401300719939, 209.0230085235089, -245.5375217408873, 0.11200000531971455, 0.9760000463575125, 0.3040000144392252, 0.0, 0.0, 0.0, 0.0, 0.0, 1.715102190757344E9, 0.0, 2024-05-07 12:16:30.757
78.0, -289.40280832117423, -476.5698415036313, 204.31073457933962, -247.52714851731434, 0.11200000531971455, 0.9760000463575125, 0.3040000144392252, 0.0, 0.0, 0.0, 0.0, 0.0, 1.7151021907580752E9, 0.0, 2024-05-07 12:16:30.758
78.0, -296.17576714092866, -477.695551390294, 188.63307396508753, -250.9865559763275, 0.11200000531971455, 0.9760000463575125, 0.3040000144392252, 0.0, 0.0, 0.0, 0.0, 0.0, 1.7151021907580752E9, 0.0, 2024-05-07 12:16:30.758
79.0, -299.88200799701735, -474.55777532747015, 198.11746025271714, -236.55802194727585, 0.11200000531971455, 0.9760000463575125, 0.3040000144392252, 0.0, 0.0, 0.0, 0.0, 0.0, 1.7151021907717931E9, 0.0, 2024-05-07 12:16:30.771
79.0, -305.66389332851395, -466.48333132313564, 194.62439369410276, -242.4334047776647, 0.11200000531971455, 0.9760000463575125, 0.3040000144392252, 0.0, 0.0, 0.0, 0.0, 0.0, 1.7151021907717931E9, 0.0, 2024-05-07 12:16:30.771
80.0, -298.69271981110796, -466.52447022264823, 181.10839525423944, -253.23797574965283, 0.11200000531971455, 0.9760000463575125, 0.3040000144392252, 0.0, 0.0, 0.0, 0.0, 0.0, 1.7151021907873564E9, 0.0, 2024-05-07 12:16:30.787
80.0, -301.54626347729936, -474.7896491247229, 195.58928788267076, -251.29322777269408, 0.11200000531971455, 0.9760000463575125, 0.3040000144392252, 0.0, 0.0, 0.0, 0.0, 0.0, 1.7151021907873564E9, 0.0, 2024-05-07 12:16:30.787
81.0, -293.72987256990746, -478.85866027651355, 197.9790839543566, -244.75588265014812, 0.11200000531971455, 0.9920000471174717, 0.3040000144392252, 0.0, 0.0, 0.0, 0.0, 0.0, 1.7151021907882338E9, 0.0, 2024-05-07 12:16:30.788
81.0, -295.1510345530696, -471.6107341623865, 186.59108858928084, -245.78061523800716, 0.11200000531971455, 0.9920000471174717, 0.3040000144392252, 0.0, 0.0, 0.0, 0.0, 0.0, 1.7151021907882338E9, 0.0, 2024-05-07 12:16:30.788
82.0, -305.18892603414133, -484.49094960978255, 182.61557493638247, -254.73767563188449, 0.11200000531971455, 0.9920000471174717, 0.3040000144392252, 0.0, 0.0, 0.0, 0.0, 0.0, 1.7151021908017168E9, 0.0, 2024-05-07 12:16:30.801
82.0, -298.5693031125702, -476.0574752097018, 184.54162341356277, -248.4284644066356, 0.11200000531971455, 0.9920000471174717, 0.3040000144392252, 0.0, 0.0, 0.0, 0.0, 0.0, 1.7151021908017168E9, 0.0, 2024-05-07 12:16:30.801
83.0, -288.6436086301692, -469.11622089194134, 192.04012282472104, -251.4316040710546, 0.11200000531971455, 0.9920000471174717, 0.3040000144392252, 0.0, 0.0, 0.0, 0.0, 0.0, 1.7151021908173647E9, 0.0, 2024-05-07 12:16:30.817
83.0, -306.92797951353714, -481.22975684842095, 186.74068458750844, -260.87111155921593, 0.11200000531971455, 0.9920000471174717, 0.3040000144392252, 0.0, 0.0, 0.0, 0.0, 0.0, 1.7151021908173647E9, 0.0, 2024-05-07 12:16:30.817
84.0, -295.58860284788534, -461.0492566875182, 183.7562444228679, -249.38213889533654, 0.11200000531971455, 0.9920000471174717, 0.3040000144392252, 0.0, 0.0, 0.0, 0.0, 0.0, 1.7151021908181026E9, 0.0, 2024-05-07 12:16:30.818
84.0, -304.650380440522, -461.29982998454943, 177.42833369784057, -244.07522085821256, 0.11200000531971455, 0.9920000471174717, 0.3040000144392252, 0.0, 0.0, 0.0, 0.0, 0.0, 1.7151021908181026E9, 0.0, 2024-05-07 12:16:30.818
85.0, -296.80033043352887, -469.8417614833452, 175.1582144247368, -262.8831777353771, 0.11200000531971455, 0.9920000471174717, 0.3040000144392252, 0.0, 0.0, 0.0, 0.0, 0.0, 1.7151021908316915E9, 0.0, 2024-05-07 12:16:30.831
85.0, -304.2427313453518, -468.420599500183, 186.57986888941377, -248.66781800379977, 0.11200000531971455, 0.9920000471174717, 0.3040000144392252, 0.0, 0.0, 0.0, 0.0, 0.0, 1.7151021908316915E9, 0.0, 2024-05-07 12:16:30.831
86.0, -292.1142357890494, -467.287409813609, 185.1961059058085, -254.97702922904864, 0.11200000531971455, 0.9920000471174717, 0.3040000144392252, 0.0, 0.0, 0.0, 0.0, 0.0, 1.7151021908474603E9, 0.0, 2024-05-07 12:16:30.847
86.0, -305.32730233250186, -480.78470875369385, 176.5980759076774, -257.3630854007788, 0.11200000531971455, 0.9920000471174717, 0.3040000144392252, 0.0, 0.0, 0.0, 0.0, 0.0, 1.7151021908474603E9, 0.0, 2024-05-07 12:16:30.847
87.0, -303.9136201492511, -480.0928272618912, 190.050496048294, -254.08693303959444, 0.11200000531971455, 0.9920000471174717, 0.3040000144392252, 0.0, 0.0, 0.0, 0.0, 0.0, 1.715102190848298E9, 0.0, 2024-05-07 12:16:30.848
87.0, -291.17926080012694, -470.6121808742173, 196.8309346679598, -240.2119042039849, 0.11200000531971455, 0.9920000471174717, 0.3040000144392252, 0.0, 0.0, 0.0, 0.0, 0.0, 1.715102190848298E9, 0.0, 2024-05-07 12:16:30.848
88.0, -296.58715613605455, -467.7174983085133, 195.75010358076543, -235.97085765423253, 0.11200000531971455, 0.9920000471174717, 0.3040000144392252, 0.0, 0.0, 0.0, 0.0, 0.0, 1.7151021908619895E9, 0.0, 2024-05-07 12:16:30.861
88.0, -288.76702532870695, -471.93236555857584, 190.77603663969785, -238.03154252981767, 0.11200000531971455, 0.9920000471174717, 0.3040000144392252, 0.0, 0.0, 0.0, 0.0, 0.0, 1.7151021908619895E9, 0.0, 2024-05-07 12:16:30.861
89.0, -296.0486105424352, -471.7154513611458, 198.18103855196387, -243.42447826592252, 0.11200000531971455, 0.9920000471174717, 0.3040000144392252, 0.0, 0.0, 0.0, 0.0, 0.0, 1.7151021908775606E9, 0.0, 2024-05-07 12:16:30.877
89.0, -275.54647898534313, -461.66260028025135, 191.7259712284431, -236.03443595347926, 0.11200000531971455, 0.9920000471174717, 0.3040000144392252, 0.0, 0.0, 0.0, 0.0, 0.0, 1.7151021908775606E9, 0.0, 2024-05-07 12:16:30.877
90.0, -291.0184451020323, -473.5480023394339, 197.19744486361742, -239.59108081134036, 0.11200000531971455, 0.9920000471174717, 0.3200000151991844, 0.0, 0.0, 0.0, 0.0, 0.0, 1.7151021908780556E9, 0.0, 2024-05-07 12:16:30.878
90.0, -290.03111151373014, -481.7570827421732, 184.73983811121434, -247.79642131412402, 0.11200000531971455, 0.9920000471174717, 0.3200000151991844, 0.0, 0.0, 0.0, 0.0, 0.0, 1.7151021908780556E9, 0.0, 2024-05-07 12:16:30.878
91.0, -285.0046859732829, -479.950711063575, 190.55164264235646, -238.62618662277237, 0.11200000531971455, 0.9760000463575125, 0.3200000151991844, 0.0, 0.0, 0.0, 0.0, 0.0, 1.7151021908918676E9, 0.0, 2024-05-07 12:16:30.891
91.0, -277.670742160175, -483.93370451638475, 191.6511732293293, -249.59531319281086, 0.11200000531971455, 0.9760000463575125, 0.3200000151991844, 0.0, 0.0, 0.0, 0.0, 0.0, 1.7151021908918676E9, 0.0, 2024-05-07 12:16:30.891
92.0, -310.77633656794205, -480.1264863614924, 184.11901471856982, -252.01876836409792, 0.11200000531971455, 0.9760000463575125, 0.3200000151991844, 0.0, 0.0, 0.0, 0.0, 0.0, 1.7151021909074368E9, 0.0, 2024-05-07 12:16:30.907
92.0, -288.39303533313796, -476.5885410034098, 191.3519812328741, -236.21395115135238, 0.11200000531971455, 0.9760000463575125, 0.3200000151991844, 0.0, 0.0, 0.0, 0.0, 0.0, 1.7151021909074368E9, 0.0, 2024-05-07 12:16:30.907
93.0, -281.2199072181247, -481.5738276443444, 202.57168109994382, -226.58370876545087, 0.11200000531971455, 0.9760000463575125, 0.3200000151991844, 0.0, 0.0, 0.0, 0.0, 0.0, 1.7151021909081569E9, 0.0, 2024-05-07 12:16:30.908
93.0, -300.8319425857626, -485.41844479879364, 181.62450144812465, -246.8053478258662, 0.11200000531971455, 0.9760000463575125, 0.3200000151991844, 0.0, 0.0, 0.0, 0.0, 0.0, 1.7151021909081569E9, 0.0, 2024-05-07 12:16:30.908
94.0, -277.5211461619474, -478.4697106811218, 188.30396276898682, -243.90692536020651, 0.11200000531971455, 0.9760000463575125, 0.3200000151991844, 0.0, 0.0, 0.0, 0.0, 0.0, 1.7151021909218192E9, 0.0, 2024-05-07 12:16:30.921
94.0, -277.8465174580924, -485.1678715017624, 192.571188618429, -244.93165794806555, 0.11200000531971455, 0.9760000463575125, 0.3200000151991844, 0.0, 0.0, 0.0, 0.0, 0.0, 1.7151021909218192E9, 0.0, 2024-05-07 12:16:30.921
95.0, -292.9744127788581, -487.5015690741129, 190.92937253788114, -255.8035471192561, 0.11200000531971455, 0.9760000463575125, 0.3200000151991844, 0.0, 0.0, 0.0, 0.0, 0.0, 1.7151021909374788E9, 0.0, 2024-05-07 12:16:30.937
95.0, -282.46529390336946, -480.71365065453574, 184.76601741090417, -250.36573258368298, 0.11200000531971455, 0.9760000463575125, 0.3200000151991844, 0.0, 0.0, 0.0, 0.0, 0.0, 1.7151021909374788E9, 0.0, 2024-05-07 12:16:30.937
96.0, -299.62769480003044, -484.6218461082317, 192.4290724201128, -245.96387033583596, 0.11200000531971455, 0.9760000463575125, 0.3200000151991844, 0.0, 0.0, 0.0, 0.0, 0.0, 1.715102190938093E9, 0.0, 2024-05-07 12:16:30.938
96.0, -285.9396609622054, -478.48467028094456, 190.7199381403625, -247.75528241461143, 0.11200000531971455, 0.9760000463575125, 0.3200000151991844, 0.0, 0.0, 0.0, 0.0, 0.0, 1.715102190938093E9, 0.0, 2024-05-07 12:16:30.938
97.0, -292.10301608918235, -481.82814084133133, 186.89402048569173, -249.3970984951593, 0.11200000531971455, 0.9760000463575125, 0.3200000151991844, 0.0, 0.0, 0.0, 0.0, 0.0, 1.7151021909518251E9, 0.0, 2024-05-07 12:16:30.951
97.0, -290.8987683034502, -480.93056485196576, 196.84963416773826, -241.55078838812187, 0.11200000531971455, 0.9760000463575125, 0.3200000151991844, 0.0, 0.0, 0.0, 0.0, 0.0, 1.7151021909518251E9, 0.0, 2024-05-07 12:16:30.951
98.0, -280.2961519290693, -474.45305812871084, 198.07258145324886, -234.4973370716907, 0.11200000531971455, 0.9760000463575125, 0.3200000151991844, 0.0, 0.0, 0.0, 0.0, 0.0, 1.7151021909673305E9, 0.0, 2024-05-07 12:16:30.967
98.0, -285.10566327208653, -477.70677109016106, 188.74153106380254, -240.81402809685096, 0.11200000531971455, 0.9760000463575125, 0.3200000151991844, 0.0, 0.0, 0.0, 0.0, 0.0, 1.7151021909673305E9, 0.0, 2024-05-07 12:16:30.967
99.0, -279.3723966400139, -476.5698415036313, 203.71983038634062, -230.17775262286887, 0.11200000531971455, 0.9760000463575125, 0.3200000151991844, 0.0, 0.0, 0.0, 0.0, 0.0, 1.7151021909680932E9, 0.0, 2024-05-07 12:16:30.968
99.0, -287.7871715403162, -474.3857399295084, 205.6159596638754, -227.24567105760798, 0.11200000531971455, 0.9760000463575125, 0.3200000151991844, 0.0, 0.0, 0.0, 0.0, 0.0, 1.7151021909680932E9, 0.0, 2024-05-07 12:16:30.968
100.0, -293.3521426743828, -482.30684803565964, 186.92019978538156, -243.18138476880267, 0.11200000531971455, 0.9760000463575125, 0.3040000144392252, 0.0, 0.0, 0.0, 0.0, 0.0, 1.715102190982515E9, 0.0, 2024-05-07 12:16:30.982
100.0, -285.2253400706686, -479.4420846696012, 195.22277768701315, -234.3178218738176, 0.11200000531971455, 0.9760000463575125, 0.3040000144392252, 0.0, 0.0, 0.0, 0.0, 0.0, 1.715102190982515E9, 0.0, 2024-05-07 12:16:30.982
0.0, -289.2102034734562, -478.60060717957094, 196.93565186671913, -248.71269680326805, 0.11200000531971455, 0.9760000463575125, 0.3040000144392252, 0.0, 0.0, 0.0, 0.0, 0.0, 1.7151021909830923E9, 0.0, 2024-05-07 12:16:30.983
1.0, -297.3257863773033, -471.6817922615446, 184.81837601028383, -253.27163484925404, 0.11200000531971455, 0.9760000463575125, 0.3040000144392252, 0.0, 0.0, 0.0, 0.0, 0.0, 1.715102190996626E9, 0.0, 2024-05-07 12:16:30.996
1.0, -312.9323888923973, -477.1420461968519, 194.2803228981793, -255.27996112545952, 0.11200000531971455, 0.9760000463575125, 0.3040000144392252, 0.0, 0.0, 0.0, 0.0, 0.0, 1.715102190996626E9, 0.0, 2024-05-07 12:16:30.996
2.0, -293.2231161259115, -475.5039700162597, 200.6531124226749, -250.18247748585418, 0.11200000531971455, 0.9760000463575125, 0.3040000144392252, 0.0, 0.0, 0.0, 0.0, 0.0, 1.7151021910123496E9, 0.0, 2024-05-07 12:16:31.012
2.0, -298.9489029580727, -477.48237709281966, 194.36260069720447, -244.86433974886313, 0.11200000531971455, 0.9760000463575125, 0.3040000144392252, 0.0, 0.0, 0.0, 0.0, 0.0, 1.7151021910123496E9, 0.0, 2024-05-07 12:16:31.012
3.0, -303.87435119971633, -475.21973761962727, 195.40603278484195, -244.16123855719343, 0.11200000531971455, 0.9760000463575125, 0.3040000144392252, 0.0, 0.0, 0.0, 0.0, 0.0, 1.7151021910133026E9, 0.0, 2024-05-07 12:16:31.013
3.0, -289.9507036646828, -480.52291575679556, 199.55358183570206, -237.19380493974313, 0.11200000531971455, 0.9760000463575125, 0.3040000144392252, 0.0, 0.0, 0.0, 0.0, 0.0, 1.7151021910133026E9, 0.0, 2024-05-07 12:16:31.013
4.0, -292.55741393379867, -477.0335890981369, 205.2494494682178, -237.75478993309662, 0.11200000531971455, 0.9760000463575125, 0.3040000144392252, 0.0, 0.0, 0.0, 0.0, 0.0, 1.7151021910268168E9, 0.0, 2024-05-07 12:16:31.026
4.0, -292.23952243756503, -485.9158514929004, 192.81802201550454, -248.20033050933853, 0.11200000531971455, 0.9760000463575125, 0.3040000144392252, 0.0, 0.0, 0.0, 0.0, 0.0, 1.7151021910268168E9, 0.0, 2024-05-07 12:16:31.026
5.0, -298.3953977646306, -479.2476098719053, 192.88534021470696, -250.63126548053697, 0.11200000531971455, 0.9760000463575125, 0.3040000144392252, 0.0, 0.0, 0.0, 0.0, 0.0, 1.7151021910424683E9, 0.0, 2024-05-07 12:16:31.042
5.0, -298.8554054591805, -474.15386613225564, 198.55876844748855, -251.52136166999117, 0.11200000531971455, 0.9760000463575125, 0.3040000144392252, 0.0, 0.0, 0.0, 0.0, 0.0, 1.7151021910424683E9, 0.0, 2024-05-07 12:16:31.042
6.0, -302.4419695166871, -470.6084409742616, 193.73055760469288, -253.59700614539906, 0.11200000531971455, 0.9760000463575125, 0.3040000144392252, 0.0, 0.0, 0.0, 0.0, 0.0, 1.7151021910431552E9, 0.0, 2024-05-07 12:16:31.043
6.0, -304.84298528824, -471.14698656788096, 187.50362417846918, -258.93010348221287, 0.11200000531971455, 0.9760000463575125, 0.3040000144392252, 0.0, 0.0, 0.0, 0.0, 0.0, 1.7151021910431552E9, 0.0, 2024-05-07 12:16:31.043
7.0, -305.8153592767194, -466.7301647202112, 188.96592506114393, -244.5801073522307, 0.11200000531971455, 0.9760000463575125, 0.3040000144392252, 0.0, 0.0, 0.0, 0.0, 0.0, 1.715102191056859E9, 0.0, 2024-05-07 12:16:31.056
7.0, -315.890649757348, -463.14360066270456, 194.41869919653982, -240.26052290340886, 0.11200000531971455, 0.9760000463575125, 0.3040000144392252, 0.0, 0.0, 0.0, 0.0, 0.0, 1.715102191056859E9, 0.0, 2024-05-07 12:16:31.056
8.0, -307.23278135992587, -476.4239854053594, 189.65406665299088, -252.29552096081898, 0.11200000531971455, 0.9760000463575125, 0.3040000144392252, 0.0, 0.0, 0.0, 0.0, 0.0, 1.7151021910721314E9, 0.0, 2024-05-07 12:16:31.072
8.0, -308.9344358397648, -478.3649934823625, 194.30650219786912, -255.4033778239973, 0.11200000531971455, 0.9760000463575125, 0.3040000144392252, 0.0, 0.0, 0.0, 0.0, 0.0, 1.7151021910721314E9, 0.0, 2024-05-07 12:16:31.072
9.0, -300.5196609394625, -478.66792537877336, 187.24557108152658, -252.93504385324195, 0.11200000531971455, 0.9760000463575125, 0.3040000144392252, 0.0, 0.0, 0.0, 0.0, 0.0, 1.7151021910874107E9, 0.0, 2024-05-07 12:16:31.087
9.0, -306.35390487033874, -477.8339276886545, 188.7938896631822, -256.30843361327425, 0.11200000531971455, 0.9760000463575125, 0.3040000144392252, 0.0, 0.0, 0.0, 0.0, 0.0, 1.7151021910874107E9, 0.0, 2024-05-07 12:16:31.087
10.0, -310.06014572642744, -473.3198684421368, 199.39650603756309, -250.27223508479074, 0.11200000531971455, 0.9760000463575125, 0.33600001595914364, 0.0, 0.0, 0.0, 0.0, 0.0, 1.7151021910880723E9, 0.0, 2024-05-07 12:16:31.088
10.0, -311.8590376051143, -461.25495118508115, 199.7966753328219, -250.23857598518953, 0.11200000531971455, 0.9760000463575125, 0.33600001595914364, 0.0, 0.0, 0.0, 0.0, 0.0, 1.7151021910880723E9, 0.0, 2024-05-07 12:16:31.088
11.0, -299.45378945209086, -462.2348049734719, 203.6487722871825, -253.8064405429177, 0.11200000531971455, 0.9600000455975533, 0.33600001595914364, 0.0, 0.0, 0.0, 0.0, 0.0, 1.7151021911024773E9, 0.0, 2024-05-07 12:16:31.102
11.0, -298.728248860687, -474.8681870237924, 197.43305856082588, -253.8400996425189, 0.11200000531971455, 0.9600000455975533, 0.33600001595914364, 0.0, 0.0, 0.0, 0.0, 0.0, 1.7151021911024773E9, 0.0, 2024-05-07 12:16:31.102
12.0, -296.63390488550067, -471.315282065887, 198.7981220446527, -250.26849518483505, 0.11200000531971455, 0.9600000455975533, 0.33600001595914364, 0.0, 0.0, 0.0, 0.0, 0.0, 1.7151021911031544E9, 0.0, 2024-05-07 12:16:31.103
12.0, -296.82837968319654, -462.44423937099054, 207.85241983737797, -243.503016164992, 0.11200000531971455, 0.9600000455975533, 0.33600001595914364, 0.0, 0.0, 0.0, 0.0, 0.0, 1.7151021911031544E9, 0.0, 2024-05-07 12:16:31.103
13.0, -315.28478596452624, -474.5091566280462, 201.5731278117746, -244.40807195426896, 0.11200000531971455, 0.9600000455975533, 0.33600001595914364, 0.0, 0.0, 0.0, 0.0, 0.0, 1.715102191116895E9, 0.0, 2024-05-07 12:16:31.116
13.0, -308.54174634441733, -470.06989538064227, 210.9191378010437, -231.87940710270777, 0.11200000531971455, 0.9600000455975533, 0.33600001595914364, 0.0, 0.0, 0.0, 0.0, 0.0, 1.715102191116895E9, 0.0, 2024-05-07 12:16:31.116
14.0, -293.1744974264875, -470.3204686776735, 208.74625592678785, -240.52231590030715, 0.11200000531971455, 0.9600000455975533, 0.33600001595914364, 0.0, 0.0, 0.0, 0.0, 0.0, 1.7151021911323605E9, 0.0, 2024-05-07 12:16:31.132
14.0, -306.31650587078184, -479.1391527731903, 197.4667176604271, -236.08305465290323, 0.11200000531971455, 0.9600000455975533, 0.33600001595914364, 0.0, 0.0, 0.0, 0.0, 0.0, 1.7151021911323605E9, 0.0, 2024-05-07 12:16:31.132
15.0, -289.8347667660564, -482.26944903610274, 197.7621697569266, -245.35052674310282, 0.11200000531971455, 0.9600000455975533, 0.33600001595914364, 0.0, 0.0, 0.0, 0.0, 0.0, 1.7151021911331584E9, 0.0, 2024-05-07 12:16:31.133
15.0, -299.72306224890053, -470.14843327971175, 201.33377421461046, -233.04999578883871, 0.11200000531971455, 0.9600000455975533, 0.33600001595914364, 0.0, 0.0, 0.0, 0.0, 0.0, 1.7151021911331584E9, 0.0, 2024-05-07 12:16:31.133
16.0, -303.45174250472337, -473.4956437400542, 207.62428594008088, -246.44257753016427, 0.11200000531971455, 0.9600000455975533, 0.33600001595914364, 0.0, 0.0, 0.0, 0.0, 0.0, 1.715102191146829E9, 0.0, 2024-05-07 12:16:31.146
16.0, -305.42640968132764, -485.8447933937423, 197.93420515488833, -254.5058018346317, 0.11200000531971455, 0.9600000455975533, 0.33600001595914364, 0.0, 0.0, 0.0, 0.0, 0.0, 1.715102191146829E9, 0.0, 2024-05-07 12:16:31.146
17.0, -297.0004150811583, -477.4038391937502, 205.11855296976864, -238.73838362144306, 0.11200000531971455, 0.9600000455975533, 0.33600001595914364, 0.0, 0.0, 0.0, 0.0, 0.0, 1.7151021911624649E9, 0.0, 2024-05-07 12:16:31.162
17.0, -296.00560169294477, -464.7928965431638, 198.1660789521411, -239.63221971085295, 0.11200000531971455, 0.9600000455975533, 0.33600001595914364, 0.0, 0.0, 0.0, 0.0, 0.0, 1.7151021911624649E9, 0.0, 2024-05-07 12:16:31.162
18.0, -306.69049586635083, -479.34110737079754, 183.88340102136135, -246.43883763020858, 0.11200000531971455, 0.9600000455975533, 0.33600001595914364, 0.0, 0.0, 0.0, 0.0, 0.0, 1.7151021911631737E9, 0.0, 2024-05-07 12:16:31.163
18.0, -300.5047013396397, -475.6610458143987, 203.11022669356316, -233.93261217838153, 0.11200000531971455, 0.9600000455975533, 0.33600001595914364, 0.0, 0.0, 0.0, 0.0, 0.0, 1.7151021911631737E9, 0.0, 2024-05-07 12:16:31.163
19.0, -287.5347282933071, -473.18523204373196, 195.6528661819175, -245.2495494442992, 0.11200000531971455, 0.9600000455975533, 0.33600001595914364, 0.0, 0.0, 0.0, 0.0, 0.0, 1.7151021911767585E9, 0.0, 2024-05-07 12:16:31.176
19.0, -290.6874639559537, -482.4414844340645, 203.0915271937847, -255.0293878284283, 0.11200000531971455, 0.9600000455975533, 0.33600001595914364, 0.0, 0.0, 0.0, 0.0, 0.0, 1.7151021911767585E9, 0.0, 2024-05-07 12:16:31.176
20.0, -312.9660479919985, -481.349433647003, 200.24920322746038, -245.22337014460936, 0.11200000531971455, 0.9600000455975533, 0.3200000151991844, 0.0, 0.0, 0.0, 0.0, 0.0, 1.7151021911925633E9, 0.0, 2024-05-07 12:16:31.192
20.0, -296.52544778678566, -470.881453671027, 202.2463098037988, -238.41675222525373, 0.11200000531971455, 0.9600000455975533, 0.3200000151991844, 0.0, 0.0, 0.0, 0.0, 0.0, 1.7151021911925633E9, 0.0, 2024-05-07 12:16:31.192
21.0, -285.3281873194501, -476.9400915992446, 204.82310087326914, -242.32494767894968, 0.11200000531971455, 0.9760000463575125, 0.3200000151991844, 0.0, 0.0, 0.0, 0.0, 0.0, 1.715102191193097E9, 0.0, 2024-05-07 12:16:31.193
21.0, -300.658037237823, -480.1825848608278, 198.26705625094473, -244.89051904855296, 0.11200000531971455, 0.9760000463575125, 0.3200000151991844, 0.0, 0.0, 0.0, 0.0, 0.0, 1.715102191193097E9, 0.0, 2024-05-07 12:16:31.193
22.0, -286.6633316036314, -475.608687215019, 209.62513241637498, -237.1264867405407, 0.09600000455975533, 0.9760000463575125, 0.3200000151991844, 0.0, 0.0, 0.0, 0.0, 0.0, 1.7151021912066345E9, 0.0, 2024-05-07 12:16:31.206
22.0, -297.59879907406867, -467.85213470691815, 205.90019206050783, -230.13661372335628, 0.09600000455975533, 0.9760000463575125, 0.3200000151991844, 0.0, 0.0, 0.0, 0.0, 0.0, 1.7151021912066345E9, 0.0, 2024-05-07 12:16:31.206
23.0, -324.9374677501619, -480.4294182579033, 194.2017849991098, -242.96821047132835, 0.09600000455975533, 0.9760000463575125, 0.3200000151991844, 0.0, 0.0, 0.0, 0.0, 0.0, 1.715102191222502E9, 0.0, 2024-05-07 12:16:31.222
23.0, -303.78833350073546, -481.4017922463827, 200.7578296214342, -231.50915700709447, 0.09600000455975533, 0.9760000463575125, 0.3200000151991844, 0.0, 0.0, 0.0, 0.0, 0.0, 1.715102191222502E9, 0.0, 2024-05-07 12:16:31.222
24.0, -306.61195796728134, -466.4982909229584, 207.5756672406569, -239.03383571794257, 0.09600000455975533, 0.9760000463575125, 0.3200000151991844, 0.0, 0.0, 0.0, 0.0, 0.0, 1.715102191223217E9, 0.0, 2024-05-07 12:16:31.223
24.0, -314.1590760778636, -479.2737891715951, 191.78954952768981, -250.1712577859871, 0.09600000455975533, 0.9760000463575125, 0.3200000151991844, 0.0, 0.0, 0.0, 0.0, 0.0, 1.715102191223217E9, 0.0, 2024-05-07 12:16:31.223
25.0, -309.45428193360567, -476.9438314992003, 191.6137742297724, -247.5047091175802, 0.09600000455975533, 0.9760000463575125, 0.3200000151991844, 0.0, 0.0, 0.0, 0.0, 0.0, 1.7151021912366514E9, 0.0, 2024-05-07 12:16:31.236
25.0, -303.4330430049449, -471.7341508609243, 200.79148872103542, -240.82898769667372, 0.09600000455975533, 0.9760000463575125, 0.3200000151991844, 0.0, 0.0, 0.0, 0.0, 0.0, 1.7151021912366514E9, 0.0, 2024-05-07 12:16:31.236
26.0, -297.19862977880985, -487.3594528757967, 193.50990350730717, -237.58649443509057, 0.09600000455975533, 0.9760000463575125, 0.3200000151991844, 0.0, 0.0, 0.0, 0.0, 0.0, 1.715102191252516E9, 0.0, 2024-05-07 12:16:31.252
26.0, -308.0742588499561, -481.48780994536355, 191.55393583048135, -241.06834129383788, 0.09600000455975533, 0.9760000463575125, 0.3200000151991844, 0.0, 0.0, 0.0, 0.0, 0.0, 1.715102191252516E9, 0.0, 2024-05-07 12:16:31.252
27.0, -309.8806305285543, -464.6021616454236, 197.10020746476948, -230.59288151795045, 0.09600000455975533, 0.9760000463575125, 0.3200000151991844, 0.0, 0.0, 0.0, 0.0, 0.0, 1.715102191253119E9, 0.0, 2024-05-07 12:16:31.253
27.0, -292.8042473308742, -472.8037622482516, 194.3551208972931, -231.6849323050119, 0.09600000455975533, 0.9760000463575125, 0.3200000151991844, 0.0, 0.0, 0.0, 0.0, 0.0, 1.715102191253119E9, 0.0, 2024-05-07 12:16:31.253
28.0, -307.01586716249585, -483.9150050166063, 198.3194148503244, -236.1316733523272, 0.09600000455975533, 0.9760000463575125, 0.3200000151991844, 0.0, 0.0, 0.0, 0.0, 0.0, 1.715102191266713E9, 0.0, 2024-05-07 12:16:31.266
28.0, -294.5059018107131, -472.36619395343587, 201.2402767157182, -240.69435129826888, 0.09600000455975533, 0.9760000463575125, 0.3200000151991844, 0.0, 0.0, 0.0, 0.0, 0.0, 1.715102191266713E9, 0.0, 2024-05-07 12:16:31.266
29.0, -297.5838394742459, -474.81956832436845, 203.93674458377063, -237.0180296418257, 0.09600000455975533, 0.9760000463575125, 0.3200000151991844, 0.0, 0.0, 0.0, 0.0, 0.0, 1.7151021912824168E9, 0.0, 2024-05-07 12:16:31.282
29.0, -308.34727154672146, -480.60519355582073, 198.05014205351472, -243.60399346379563, 0.09600000455975533, 0.9760000463575125, 0.3200000151991844, 0.0, 0.0, 0.0, 0.0, 0.0, 1.7151021912824168E9, 0.0, 2024-05-07 12:16:31.282
30.0, -304.20720229577273, -488.6534582604654, 195.95579807832837, -241.22167719202116, 0.09600000455975533, 0.9760000463575125, 0.3200000151991844, 0.0, 0.0, 0.0, 0.0, 0.0, 1.7151021912830944E9, 0.0, 2024-05-07 12:16:31.283
30.0, -302.153997220099, -484.6517653078772, 198.4615310486406, -236.53184264758602, 0.09600000455975533, 0.9760000463575125, 0.3200000151991844, 0.0, 0.0, 0.0, 0.0, 0.0, 1.7151021912830944E9, 0.0, 2024-05-07 12:16:31.283
31.0, -314.75372017081827, -486.3982985871844, 203.3944590901956, -235.48093076003715, 0.09600000455975533, 0.9760000463575125, 0.3200000151991844, 0.0, 0.0, 0.0, 0.0, 0.0, 1.7151021912966287E9, 0.0, 2024-05-07 12:16:31.296
31.0, -317.9588144328445, -491.9595298212953, 197.87810665555298, -242.74755637394264, 0.09600000455975533, 0.9760000463575125, 0.3200000151991844, 0.0, 0.0, 0.0, 0.0, 0.0, 1.7151021912966287E9, 0.0, 2024-05-07 12:16:31.296
32.0, -306.72041506599635, -483.8888257169165, 208.01697543542832, -230.1253940234892, 0.0800000037997961, 0.9760000463575125, 0.3200000151991844, 0.0, 0.0, 0.0, 0.0, 0.0, 1.7151021913125548E9, 0.0, 2024-05-07 12:16:31.312
32.0, -297.97652896959335, -478.8399607767351, 215.79970724321902, -222.6455941121094, 0.0800000037997961, 0.9760000463575125, 0.3200000151991844, 0.0, 0.0, 0.0, 0.0, 0.0, 1.7151021913125548E9, 0.0, 2024-05-07 12:16:31.312
33.0, -301.57057282701135, -480.7996683535166, 201.22531711589545, -238.80944172060117, 0.0800000037997961, 0.9760000463575125, 0.3200000151991844, 0.0, 0.0, 0.0, 0.0, 0.0, 1.7151021913131626E9, 0.0, 2024-05-07 12:16:31.313
33.0, -302.38213111739606, -470.7692566723563, 202.32858760282397, -227.3840473559685, 0.0800000037997961, 0.9760000463575125, 0.3200000151991844, 0.0, 0.0, 0.0, 0.0, 0.0, 1.7151021913131626E9, 0.0, 2024-05-07 12:16:31.313
34.0, -309.08403183799237, -464.99111124081537, 201.21409741602838, -234.7217310690321, 0.0800000037997961, 0.9760000463575125, 0.3200000151991844, 0.0, 0.0, 0.0, 0.0, 0.0, 1.7151021913268049E9, 0.0, 2024-05-07 12:16:31.326
34.0, -305.2880333829671, -479.8497337647714, 204.51268917694688, -243.9106652601622, 0.0800000037997961, 0.9760000463575125, 0.3200000151991844, 0.0, 0.0, 0.0, 0.0, 0.0, 1.7151021913268049E9, 0.0, 2024-05-07 12:16:31.326
35.0, -308.3323119468987, -478.93719817558303, 192.41037292033434, -242.12299308134243, 0.0800000037997961, 0.9760000463575125, 0.3200000151991844, 0.0, 0.0, 0.0, 0.0, 0.0, 1.7151021913425407E9, 0.0, 2024-05-07 12:16:31.342
35.0, -307.1430237609893, -478.660445578862, 202.40712550189346, -240.9112654956989, 0.0800000037997961, 0.9760000463575125, 0.3200000151991844, 0.0, 0.0, 0.0, 0.0, 0.0, 1.7151021913425407E9, 0.0, 2024-05-07 12:16:31.342
36.0, -304.2558209951967, -484.0533813149668, 203.71235058642924, -236.14663295214996, 0.0800000037997961, 0.9760000463575125, 0.3200000151991844, 0.0, 0.0, 0.0, 0.0, 0.0, 1.7151021913430429E9, 0.0, 2024-05-07 12:16:31.343
36.0, -314.9332353686914, -490.86373913427815, 188.9098265618086, -237.45559793664142, 0.0800000037997961, 0.9760000463575125, 0.3200000151991844, 0.0, 0.0, 0.0, 0.0, 0.0, 1.7151021913430429E9, 0.0, 2024-05-07 12:16:31.343
37.0, -312.46116149798036, -489.3191604525782, 208.3199073318392, -229.88604042632505, 0.0800000037997961, 0.9760000463575125, 0.3200000151991844, 0.0, 0.0, 0.0, 0.0, 0.0, 1.7151021913570523E9, 0.0, 2024-05-07 12:16:31.357
37.0, -294.15809111483395, -485.6877175956033, 198.94023824296892, -239.92767180735245, 0.0800000037997961, 0.9760000463575125, 0.3200000151991844, 0.0, 0.0, 0.0, 0.0, 0.0, 1.7151021913570523E9, 0.0, 2024-05-07 12:16:31.357
38.0, -311.12975711375475, -497.9171904507093, 197.96786425448954, -239.66961871040985, 0.0800000037997961, 0.9760000463575125, 0.3200000151991844, 0.0, 0.0, 0.0, 0.0, 0.0, 1.7151021913725126E9, 0.0, 2024-05-07 12:16:31.372
38.0, -296.256174989976, -491.7239161240868, 209.23244292102754, -239.40782571351156, 0.0800000037997961, 0.9760000463575125, 0.3200000151991844, 0.0, 0.0, 0.0, 0.0, 0.0, 1.7151021913725126E9, 0.0, 2024-05-07 12:16:31.372
39.0, -301.8922042232007, -485.2389296009205, 209.9879027120769, -229.7214848282747, 0.0800000037997961, 0.9760000463575125, 0.3200000151991844, 0.0, 0.0, 0.0, 0.0, 0.0, 1.7151021913733215E9, 0.0, 2024-05-07 12:16:31.373
39.0, -307.4048167578876, -480.22372376034036, 206.18442445714027, -228.053489448037, 0.0800000037997961, 0.9760000463575125, 0.3200000151991844, 0.0, 0.0, 0.0, 0.0, 0.0, 1.7151021913733215E9, 0.0, 2024-05-07 12:16:31.373
40.0, -313.31385868787766, -484.4797299099155, 202.60908009950072, -228.98846443695948, 0.0800000037997961, 0.9760000463575125, 0.3040000144392252, 0.0, 0.0, 0.0, 0.0, 0.0, 1.7151021913869245E9, 0.0, 2024-05-07 12:16:31.386
40.0, -313.8972830809653, -483.96736361598596, 203.8058480853215, -234.8002689681016, 0.0800000037997961, 0.9760000463575125, 0.3040000144392252, 0.0, 0.0, 0.0, 0.0, 0.0, 1.7151021913869245E9, 0.0, 2024-05-07 12:16:31.386
41.0, -299.5024081515148, -479.8085948652588, 192.73948411643505, -225.21116548171267, 0.0800000037997961, 0.9760000463575125, 0.3040000144392252, 0.0, 0.0, 0.0, 0.0, 0.0, 1.7151021914188704E9, 0.0, 2024-05-07 12:16:31.418
41.0, -310.91284291632473, -486.8844855814241, 193.6071409061551, -238.15121932839975, 0.0800000037997961, 0.9760000463575125, 0.3040000144392252, 0.0, 0.0, 0.0, 0.0, 0.0, 1.7151021914188704E9, 0.0, 2024-05-07 12:16:31.418
42.0, -312.9323888923973, -477.26920279534534, 208.43958413042128, -225.59263527719304, 0.12800000607967377, 0.9760000463575125, 0.3040000144392252, 0.0, 0.0, 0.0, 0.0, 0.0, 1.715102191419475E9, 0.0, 2024-05-07 12:16:31.419
42.0, -298.8030468598008, -479.7637160657905, 197.22736406326294, -229.0520427362062, 0.12800000607967377, 0.9760000463575125, 0.3040000144392252, 0.0, 0.0, 0.0, 0.0, 0.0, 1.715102191419475E9, 0.0, 2024-05-07 12:16:31.419
43.0, -309.57769863214344, -470.25689037842676, 192.26451682206243, -230.22637132229283, 0.12800000607967377, 0.9760000463575125, 0.3040000144392252, 0.0, 0.0, 0.0, 0.0, 0.0, 1.7151021914202237E9, 0.0, 2024-05-07 12:16:31.420
43.0, -303.9154900992289, -476.33048790646717, 198.03518245369196, -228.2367445458658, 0.12800000607967377, 0.9760000463575125, 0.3040000144392252, 0.0, 0.0, 0.0, 0.0, 0.0, 1.7151021914202237E9, 0.0, 2024-05-07 12:16:31.420
44.0, -301.46211572829634, -479.8123347652145, 198.24835675116628, -221.17955332947895, 0.12800000607967377, 0.9760000463575125, 0.3040000144392252, 0.0, 0.0, 0.0, 0.0, 0.0, 1.7151021914209635E9, 0.0, 2024-05-07 12:16:31.420
44.0, -308.3360518468544, -490.0260015442036, 195.25643678661436, -233.3529276852496, 0.12800000607967377, 0.9760000463575125, 0.3040000144392252, 0.0, 0.0, 0.0, 0.0, 0.0, 1.7151021914209635E9, 0.0, 2024-05-07 12:16:31.420
45.0, -315.4530814625323, -490.34763294039294, 192.44029211997986, -241.14313929295167, 0.12800000607967377, 0.9760000463575125, 0.3040000144392252, 0.0, 0.0, 0.0, 0.0, 0.0, 1.715102191431867E9, 0.0, 2024-05-07 12:16:31.431
45.0, -318.01491293217987, -477.164485596586, 198.3942128494382, -237.8034086325206, 0.12800000607967377, 0.9760000463575125, 0.3040000144392252, 0.0, 0.0, 0.0, 0.0, 0.0, 1.715102191431867E9, 0.0, 2024-05-07 12:16:31.431
46.0, -314.67892217170447, -479.9133120640181, 190.58904164191335, -230.85841441480443, 0.12800000607967377, 0.9760000463575125, 0.3040000144392252, 0.0, 0.0, 0.0, 0.0, 0.0, 1.7151021914468484E9, 0.0, 2024-05-07 12:16:31.446
46.0, -323.76313916407526, -493.6985833006911, 184.57902241311967, -244.84938014904037, 0.12800000607967377, 0.9760000463575125, 0.3040000144392252, 0.0, 0.0, 0.0, 0.0, 0.0, 1.7151021914468484E9, 0.0, 2024-05-07 12:16:31.446
47.0, -308.7324812421575, -481.5850473442115, 194.6430931938812, -231.056629112456, 0.12800000607967377, 0.9760000463575125, 0.3040000144392252, 0.0, 0.0, 0.0, 0.0, 0.0, 1.7151021914625504E9, 0.0, 2024-05-07 12:16:31.462
47.0, -306.6680564666167, -472.2165979552083, 203.2411231920123, -229.10440133558586, 0.12800000607967377, 0.9760000463575125, 0.3040000144392252, 0.0, 0.0, 0.0, 0.0, 0.0, 1.7151021914625504E9, 0.0, 2024-05-07 12:16:31.462
48.0, -296.75358168408275, -479.0269557745196, 204.0227622827515, -239.89401270775124, 0.12800000607967377, 0.9760000463575125, 0.3040000144392252, 0.0, 0.0, 0.0, 0.0, 0.0, 1.71510219146309E9, 0.0, 2024-05-07 12:16:31.463
48.0, -309.1176909375936, -483.1745048253797, 195.7949823802337, -223.95081919664517, 0.12800000607967377, 0.9760000463575125, 0.3040000144392252, 0.0, 0.0, 0.0, 0.0, 0.0, 1.71510219146309E9, 0.0, 2024-05-07 12:16:31.463
49.0, -304.0052476981655, -480.26486265985295, 203.33462069090456, -224.32106929225847, 0.12800000607967377, 0.9760000463575125, 0.3040000144392252, 0.0, 0.0, 0.0, 0.0, 0.0, 1.7151021914768357E9, 0.0, 2024-05-07 12:16:31.476
49.0, -309.1775293368846, -484.0608611148782, 195.89969957899302, -229.69904542854056, 0.12800000607967377, 0.9760000463575125, 0.3040000144392252, 0.0, 0.0, 0.0, 0.0, 0.0, 1.7151021914768357E9, 0.0, 2024-05-07 12:16:31.476
50.0, -313.743947182782, -482.6546587315388, 191.6885722288862, -234.4225390725769, 0.12800000607967377, 0.9760000463575125, 0.3040000144392252, 0.0, 0.0, 0.0, 0.0, 0.0, 1.7151021914925842E9, 0.0, 2024-05-07 12:16:31.492
50.0, -310.9240626161918, -480.14892576122656, 193.77169650420547, -234.6843320694752, 0.12800000607967377, 0.9760000463575125, 0.3040000144392252, 0.0, 0.0, 0.0, 0.0, 0.0, 1.7151021914925842E9, 0.0, 2024-05-07 12:16:31.492
51.0, -310.7819464178756, -468.2710035019554, 194.82634829171002, -226.7520042634569, 0.12800000607967377, 0.9920000471174717, 0.3040000144392252, 0.0, 0.0, 0.0, 0.0, 0.0, 1.7151021914931035E9, 0.0, 2024-05-07 12:16:31.493
51.0, -316.10008415486664, -477.5422154921107, 188.69291236437857, -234.50855677155778, 0.12800000607967377, 0.9920000471174717, 0.3040000144392252, 0.0, 0.0, 0.0, 0.0, 0.0, 1.7151021914931035E9, 0.0, 2024-05-07 12:16:31.493
52.0, -300.8412923356518, -475.4590912167914, 200.74287002161145, -238.18113852804527, 0.09600000455975533, 0.9920000471174717, 0.3040000144392252, 0.0, 0.0, 0.0, 0.0, 0.0, 1.7151021915067227E9, 0.0, 2024-05-07 12:16:31.506
52.0, -293.42133082356304, -476.81667490070686, 200.48855682462454, -230.48068451927975, 0.09600000455975533, 0.9920000471174717, 0.3040000144392252, 0.0, 0.0, 0.0, 0.0, 0.0, 1.7151021915067227E9, 0.0, 2024-05-07 12:16:31.506
53.0, -312.69303529523313, -478.1705186846666, 189.22397815808654, -235.25653676269576, 0.09600000455975533, 0.9920000471174717, 0.3040000144392252, 0.0, 0.0, 0.0, 0.0, 0.0, 1.7151021915224948E9, 0.0, 2024-05-07 12:16:31.522
53.0, -311.3653708109632, -474.86070722388104, 197.62379345856607, -223.5282105016522, 0.09600000455975533, 0.9920000471174717, 0.3040000144392252, 0.0, 0.0, 0.0, 0.0, 0.0, 1.7151021915224948E9, 0.0, 2024-05-07 12:16:31.522
54.0, -298.71328926086426, -476.6072405031882, 201.08320091757923, -225.4205998792313, 0.09600000455975533, 0.9920000471174717, 0.3040000144392252, 0.0, 0.0, 0.0, 0.0, 0.0, 1.7151021915230722E9, 0.0, 2024-05-07 12:16:31.523
54.0, -296.38707148842514, -474.07906813314185, 190.85831443872303, -239.37790651386604, 0.09600000455975533, 0.9920000471174717, 0.3040000144392252, 0.0, 0.0, 0.0, 0.0, 0.0, 1.7151021915230722E9, 0.0, 2024-05-07 12:16:31.523
55.0, -301.5780526269227, -476.356667206157, 200.43993812520057, -242.40348557801917, 0.09600000455975533, 0.9920000471174717, 0.3040000144392252, 0.0, 0.0, 0.0, 0.0, 0.0, 1.7151021915366733E9, 0.0, 2024-05-07 12:16:31.536
55.0, -299.8838779469952, -477.104647197295, 192.52256991900504, -235.3126352620311, 0.09600000455975533, 0.9920000471174717, 0.3040000144392252, 0.0, 0.0, 0.0, 0.0, 0.0, 1.7151021915366733E9, 0.0, 2024-05-07 12:16:31.536
56.0, -297.2846474777907, -472.81124204816297, 202.55672150012106, -231.04166951263323, 0.09600000455975533, 0.9920000471174717, 0.3040000144392252, 0.0, 0.0, 0.0, 0.0, 0.0, 1.715102191552369E9, 0.0, 2024-05-07 12:16:31.552
56.0, -305.41892988141626, -483.8738661170937, 184.78097701072693, -238.3569138259627, 0.09600000455975533, 0.9920000471174717, 0.3040000144392252, 0.0, 0.0, 0.0, 0.0, 0.0, 1.715102191552369E9, 0.0, 2024-05-07 12:16:31.552
57.0, -291.6299187447876, -485.93455099267885, 199.47130403667688, -231.20996501063928, 0.09600000455975533, 0.9920000471174717, 0.3040000144392252, 0.0, 0.0, 0.0, 0.0, 0.0, 1.715102191553168E9, 0.0, 2024-05-07 12:16:31.553
57.0, -296.9256170820445, -494.2221692944877, 198.45031134877354, -229.6840858287178, 0.09600000455975533, 0.9920000471174717, 0.3040000144392252, 0.0, 0.0, 0.0, 0.0, 0.0, 1.715102191553168E9, 0.0, 2024-05-07 12:16:31.553
58.0, -302.90571711119264, -496.75782146444544, 190.74237754009664, -233.2070715869777, 0.09600000455975533, 0.9920000471174717, 0.3040000144392252, 0.0, 0.0, 0.0, 0.0, 0.0, 1.715102191566652E9, 0.0, 2024-05-07 12:16:31.566
58.0, -306.02105377428234, -476.08365450939164, 208.77617512643337, -233.49130398361012, 0.09600000455975533, 0.9920000471174717, 0.3040000144392252, 0.0, 0.0, 0.0, 0.0, 0.0, 1.715102191566652E9, 0.0, 2024-05-07 12:16:31.566
59.0, -310.16112302523106, -487.7035236717202, 199.2469100393355, -225.74597117537633, 0.09600000455975533, 0.9920000471174717, 0.3040000144392252, 0.0, 0.0, 0.0, 0.0, 0.0, 1.7151021915821197E9, 0.0, 2024-05-07 12:16:31.582
59.0, -309.5627390323207, -487.5053089740686, 194.19056529924273, -235.1630392638035, 0.09600000455975533, 0.9920000471174717, 0.3040000144392252, 0.0, 0.0, 0.0, 0.0, 0.0, 1.7151021915821197E9, 0.0, 2024-05-07 12:16:31.582
60.0, -302.8907575113699, -491.806193923112, 193.18079231120646, -243.30106156738475, 0.09600000455975533, 0.9920000471174717, 0.3040000144392252, 0.0, 0.0, 0.0, 0.0, 0.0, 1.7151021915976913E9, 0.0, 2024-05-07 12:16:31.597
60.0, -298.2196224667132, -504.0281869783066, 201.82370110880584, -233.8316348795779, 0.09600000455975533, 0.9920000471174717, 0.3040000144392252, 0.0, 0.0, 0.0, 0.0, 0.0, 1.7151021915976913E9, 0.0, 2024-05-07 12:16:31.597
61.0, -303.1862096078694, -486.3945586872287, 208.2451093327254, -233.7269176808186, 0.09600000455975533, 0.9920000471174717, 0.3040000144392252, 0.0, 0.0, 0.0, 0.0, 0.0, 1.715102191598117E9, 0.0, 2024-05-07 12:16:31.598
61.0, -298.8928044587374, -490.1344586429186, 199.37032673787326, -238.9141589193605, 0.09600000455975533, 0.9920000471174717, 0.3040000144392252, 0.0, 0.0, 0.0, 0.0, 0.0, 1.715102191598117E9, 0.0, 2024-05-07 12:16:31.598
62.0, -296.4394300878048, -485.0968134026043, 214.77871455531567, -230.1702728229575, 0.11200000531971455, 0.9920000471174717, 0.3040000144392252, 0.0, 0.0, 0.0, 0.0, 0.0, 1.7151021916125424E9, 0.0, 2024-05-07 12:16:31.612
62.0, -293.1370984269306, -487.90547826932743, 212.9499034769833, -233.45016508409753, 0.11200000531971455, 0.9920000471174717, 0.3040000144392252, 0.0, 0.0, 0.0, 0.0, 0.0, 1.7151021916125424E9, 0.0, 2024-05-07 12:16:31.612
63.0, -305.50120768044144, -487.1013997788541, 199.88643293175846, -248.56310080504045, 0.11200000531971455, 0.9920000471174717, 0.3040000144392252, 0.0, 0.0, 0.0, 0.0, 0.0, 1.7151021916130905E9, 0.0, 2024-05-07 12:16:31.613
63.0, -305.4376293811947, -500.89789071539417, 208.12543253414333, -245.19345094496384, 0.11200000531971455, 0.9920000471174717, 0.3040000144392252, 0.0, 0.0, 0.0, 0.0, 0.0, 1.7151021916130905E9, 0.0, 2024-05-07 12:16:31.613
64.0, -288.41734468284994, -503.1493104887195, 200.26790272723883, -249.13156559830531, 0.11200000531971455, 0.9920000471174717, 0.3040000144392252, 0.0, 0.0, 0.0, 0.0, 0.0, 1.715102191643253E9, 0.0, 2024-05-07 12:16:31.643
64.0, -299.67444354947656, -502.16197690041736, 194.63561339396983, -245.48516314150766, 0.11200000531971455, 0.9920000471174717, 0.3040000144392252, 0.0, 0.0, 0.0, 0.0, 0.0, 1.715102191643253E9, 0.0, 2024-05-07 12:16:31.643
65.0, -315.17632886581123, -493.16377760702744, 180.016344467178, -255.358499024529, 0.11200000531971455, 0.9920000471174717, 0.3040000144392252, 0.0, 0.0, 0.0, 0.0, 0.0, 1.7151021916438005E9, 0.0, 2024-05-07 12:16:31.643
65.0, -305.1122580850497, -485.11177300242707, 182.85866843350232, -240.44377800123766, 0.11200000531971455, 0.9920000471174717, 0.3040000144392252, 0.0, 0.0, 0.0, 0.0, 0.0, 1.7151021916438005E9, 0.0, 2024-05-07 12:16:31.643
66.0, -303.45922230463475, -485.2501493007876, 193.59218130633235, -236.8310346440412, 0.11200000531971455, 0.9920000471174717, 0.3040000144392252, 0.0, 0.0, 0.0, 0.0, 0.0, 1.7151021916445768E9, 0.0, 2024-05-07 12:16:31.644
