%OpenBCI Raw EXG Data
%Number of channels = 4
%Sample Rate = 200 Hz
%Board = OpenBCI_GUI$BoardGanglionNative
Sample Index, EXG Channel 0, EXG Channel 1, EXG Channel 2, EXG Channel 3, Accel Channel 0, Accel Channel 1, Accel Channel 2, Other, Other, Other, Other, Other, Timestamp, Other, Timestamp (Formatted)
0.0, 120.94275471707806, -75.55719880480319, 166.24977273028344, 38.54340894334018, 0.0, 0.0, 0.0, 0.0, 0.0, 0.0, 0.0, 0.0, 1.7151011295874436E9, 0.0, 2024-05-07 11:58:49.587
1.0, 27.303139626514167, -148.8480182364583, 26.852481681853533, -23.40429392270744, 0.0, 1.0560000501573086, 0.0, 0.0, 0.0, 0.0, 0.0, 0.0, 1.7151011295883324E9, 0.0, 2024-05-07 11:58:49.588
1.0, -36.10312422225252, -236.63842979632318, 1.2977452846243978, -72.39324344228953, 0.0, 1.0560000501573086, 0.0, 0.0, 0.0, 0.0, 0.0, 0.0, 1.7151011295883443E9, 0.0, 2024-05-07 11:58:49.588
2.0, 30.216521691996604, -123.31198133900762, 82.64056932087988, 4.962847241200507, -0.11200000531971455, 1.0560000501573086, 0.0, 0.0, 0.0, 0.0, 0.0, 0.0, 1.7151011296175559E9, 0.0, 2024-05-07 11:58:49.617
2.0, 151.71465155249462, -55.27946124505252, 148.16735644452274, 69.23302797973156, -0.11200000531971455, 1.0560000501573086, 0.0, 0.0, 0.0, 0.0, 0.0, 0.0, 1.7151011296175764E9, 0.0, 2024-05-07 11:58:49.617
3.0, -21.805486691650003, -212.96860297676176, 15.995552110485733, -62.07111956458539, -0.11200000531971455, 1.0560000501573086, 0.0, 0.0, 0.0, 0.0, 0.0, 0.0, 1.7151011296179528E9, 0.0, 2024-05-07 11:58:49.617
3.0, -8.65599844744429, -195.99693697784096, -16.50417850445956, -25.090988802723587, -0.11200000531971455, 1.0560000501573086, 0.0, 0.0, 0.0, 0.0, 0.0, 0.0, 1.7151011296179624E9, 0.0, 2024-05-07 11:58:49.617
4.0, 186.90711013553664, -27.42842627502978, 202.66891849879175, 73.7770064258948, -0.11200000531971455, 1.0560000501573086, 0.0, 0.0, 0.0, 0.0, 0.0, 0.0, 1.7151011296186345E9, 0.0, 2024-05-07 11:58:49.618
4.0, 42.07948435144499, -166.77335872408003, 15.561723715625703, -13.396321641281247, -0.11200000531971455, 1.0560000501573086, 0.0, 0.0, 0.0, 0.0, 0.0, 0.0, 1.7151011296186497E9, 0.0, 2024-05-07 11:58:49.618
5.0, -22.613305082079023, -206.58833365235478, 23.194859525188804, -39.38488643337041, -0.11200000531971455, 1.0560000501573086, 0.0, 0.0, 0.0, 0.0, 0.0, 0.0, 1.7151011296194673E9, 0.0, 2024-05-07 11:58:49.619
5.0, 125.20250076660886, -45.630519359372556, 124.44143112562597, 64.48709493596107, -0.11200000531971455, 1.0560000501573086, 0.0, 0.0, 0.0, 0.0, 0.0, 0.0, 1.7151011296194785E9, 0.0, 2024-05-07 11:58:49.619
6.0, 66.5309502617456, -109.99045769684017, 92.88789519947022, 13.228026143275201, -0.11200000531971455, 1.0560000501573086, 0.0, 0.0, 0.0, 0.0, 0.0, 0.0, 1.7151011296475503E9, 0.0, 2024-05-07 11:58:49.647
6.0, -76.10883404826745, -205.88897236064076, -36.09751437231898, -78.03301257546991, -0.11200000531971455, 1.0560000501573086, 0.0, 0.0, 0.0, 0.0, 0.0, 0.0, 1.715101129647562E9, 0.0, 2024-05-07 11:58:49.647
7.0, 8.394205450545996, -138.6979297567159, -4.297145049087703, -11.425394364632666, -0.11200000531971455, 1.0560000501573086, 0.0, 0.0, 0.0, 0.0, 0.0, 0.0, 1.7151011296481118E9, 0.0, 2024-05-07 11:58:49.648
7.0, 107.28464007889852, -69.68929577432573, 157.32637143600732, 33.29258940555155, -0.11200000531971455, 1.0560000501573086, 0.0, 0.0, 0.0, 0.0, 0.0, 0.0, 1.7151011296481209E9, 0.0, 2024-05-07 11:58:49.648
8.0, -37.99177369987592, -209.27732172049582, -50.74296259880066, -37.275582858361304, -0.11200000531971455, 1.0560000501573086, 0.0, 0.0, 0.0, 0.0, 0.0, 0.0, 1.715101129677575E9, 0.0, 2024-05-07 11:58:49.677
8.0, 19.16137742297724, -189.63536715321243, 21.616621743887663, -35.177498983219266, -0.11200000531971455, 1.0560000501573086, 0.0, 0.0, 0.0, 0.0, 0.0, 0.0, 1.71510112967759E9, 0.0, 2024-05-07 11:58:49.677
9.0, 186.05067304568365, -25.098468602634966, 157.4834472341463, 87.30422456562519, -0.11200000531971455, 1.0560000501573086, 0.0, 0.0, 0.0, 0.0, 0.0, 0.0, 1.7151011296780157E9, 0.0, 2024-05-07 11:58:49.678
9.0, 18.076806435827166, -178.086556090042, 61.10622537601739, -18.85657557658851, -0.11200000531971455, 1.0560000501573086, 0.0, 0.0, 0.0, 0.0, 0.0, 0.0, 1.7151011296780305E9, 0.0, 2024-05-07 11:58:49.678
10.0, 24.81610615598038, -201.7601228095591, 40.439538220874965, -41.288495510816574, -0.11200000531971455, 1.0560000501573086, -0.0800000037997961, 0.0, 0.0, 0.0, 0.0, 0.0, 1.7151011296787753E9, 0.0, 2024-05-07 11:58:49.678
10.0, 144.00671774381772, -54.105132658965886, 148.90411673579365, 78.32846467196941, -0.11200000531971455, 1.0560000501573086, -0.0800000037997961, 0.0, 0.0, 0.0, 0.0, 0.0, 1.715101129678796E9, 0.0, 2024-05-07 11:58:49.678
11.0, 72.88130038650706, -108.8647478101775, 100.46493250969797, 12.349149653688073, -0.11200000531971455, 1.0400000493973494, -0.0800000037997961, 0.0, 0.0, 0.0, 0.0, 0.0, 1.7151011296797044E9, 0.0, 2024-05-07 11:58:49.679
11.0, -65.26686407672241, -246.53046517912298, -49.15724501758814, -27.79493647068739, -0.11200000531971455, 1.0400000493973494, -0.0800000037997961, 0.0, 0.0, 0.0, 0.0, 0.0, 1.715101129679726E9, 0.0, 2024-05-07 11:58:49.679
12.0, -3.618353207129985, -132.96840302459896, 73.94904182385653, -3.9530742531642318, -0.144000006839633, 1.0400000493973494, -0.0800000037997961, 0.0, 0.0, 0.0, 0.0, 0.0, 1.7151011297074928E9, 0.0, 2024-05-07 11:58:49.707
12.0, 121.99366660462692, -67.44909570086747, 85.13508259132504, 63.72789524495602, -0.144000006839633, 1.0400000493973494, -0.0800000037997961, 0.0, 0.0, 0.0, 0.0, 0.0, 1.715101129707512E9, 0.0, 2024-05-07 11:58:49.707
13.0, -70.30450931703672, -223.93772954680026, -17.203539796173573, -66.54403991159052, -0.144000006839633, 1.0400000493973494, -0.0800000037997961, 0.0, 0.0, 0.0, 0.0, 0.0, 1.7151011297083268E9, 0.0, 2024-05-07 11:58:49.708
13.0, 3.3640400101430714, -167.5998766142875, -24.10739511437714, -2.0719045754522085, -0.144000006839633, 1.0400000493973494, -0.0800000037997961, 0.0, 0.0, 0.0, 0.0, 0.0, 1.7151011297083464E9, 0.0, 2024-05-07 11:58:49.708
14.0, 146.63212751271203, -26.19051938969642, 170.58057687897235, 69.2180683799088, -0.144000006839633, 1.0400000493973494, -0.0800000037997961, 0.0, 0.0, 0.0, 0.0, 0.0, 1.7151011297375214E9, 0.0, 2024-05-07 11:58:49.737
14.0, 4.007302802521735, -188.6106345653534, 1.772712578997016, -10.793351272121072, -0.144000006839633, 1.0400000493973494, -0.0800000037997961, 0.0, 0.0, 0.0, 0.0, 0.0, 1.715101129737536E9, 0.0, 2024-05-07 11:58:49.737
15.0, -58.007718262728304, -200.28660222701728, 6.473766823299229, -41.03418231382966, -0.144000006839633, 1.0400000493973494, -0.0800000037997961, 0.0, 0.0, 0.0, 0.0, 0.0, 1.7151011297383518E9, 0.0, 2024-05-07 11:58:49.738
15.0, 138.47914560930803, -68.52244698815048, 172.49540565628558, 79.22604066133499, -0.144000006839633, 1.0400000493973494, -0.0800000037997961, 0.0, 0.0, 0.0, 0.0, 0.0, 1.715101129738412E9, 0.0, 2024-05-07 11:58:49.738
16.0, 90.26061548059806, -118.70068469364196, 86.35802987683564, 26.848741781897843, -0.144000006839633, 1.0400000493973494, -0.0800000037997961, 0.0, 0.0, 0.0, 0.0, 0.0, 1.7151011297388415E9, 0.0, 2024-05-07 11:58:49.738
16.0, -27.16476332815364, -223.93024974688888, 26.485971486195922, -48.506502425298095, -0.144000006839633, 1.0400000493973494, -0.0800000037997961, 0.0, 0.0, 0.0, 0.0, 0.0, 1.7151011297388556E9, 0.0, 2024-05-07 11:58:49.738
17.0, 70.60370131349191, -121.90577895566821, 61.0650864765048, 27.862254669889808, -0.144000006839633, 1.0400000493973494, -0.0800000037997961, 0.0, 0.0, 0.0, 0.0, 0.0, 1.7151011297400892E9, 0.0, 2024-05-07 11:58:49.740
17.0, 128.70304712513462, -60.73597528040409, 160.20983430184424, 55.06628694757819, -0.144000006839633, 1.0400000493973494, -0.0800000037997961, 0.0, 0.0, 0.0, 0.0, 0.0, 1.7151011297401109E9, 0.0, 2024-05-07 11:58:49.740
18.0, -34.84651783714071, -224.55855293944478, -14.09194303303957, -53.88447856158018, -0.144000006839633, 1.0400000493973494, -0.0800000037997961, 0.0, 0.0, 0.0, 0.0, 0.0, 1.7151011297676148E9, 0.0, 2024-05-07 11:58:49.767
18.0, -112.16894942102954, -213.24161567352712, -98.54262393247336, -99.47385902144015, -0.144000006839633, 1.0400000493973494, -0.0800000037997961, 0.0, 0.0, 0.0, 0.0, 0.0, 1.7151011297676463E9, 0.0, 2024-05-07 11:58:49.767
19.0, -339.6726735755801, -59.363431996665895, -312.06660205265507, 94.27539808303118, -0.144000006839633, 1.0400000493973494, -0.0800000037997961, 0.0, 0.0, 0.0, 0.0, 0.0, 1.715101129768494E9, 0.0, 2024-05-07 11:58:49.768
19.0, -512.695405125618, -196.6850785696879, -502.9286563913338, -39.46716423239559, -0.144000006839633, 1.0400000493973494, -0.0800000037997961, 0.0, 0.0, 0.0, 0.0, 0.0, 1.7151011297685125E9, 0.0, 2024-05-07 11:58:49.768
20.0, -606.8586062099785, -257.96333934366703, -518.3333043088205, -84.91442849393934, -0.144000006839633, 1.0400000493973494, -0.0800000037997961, 0.0, 0.0, 0.0, 0.0, 0.0, 1.7151011297974412E9, 0.0, 2024-05-07 11:58:49.797
20.0, -831.8004988948815, -73.18610223289579, -358.4787605027668, 75.83021150156856, -0.144000006839633, 1.0400000493973494, -0.0800000037997961, 0.0, 0.0, 0.0, 0.0, 0.0, 1.715101129797456E9, 0.0, 2024-05-07 11:58:49.797
21.0, -900.8988904762082, -120.34624067414552, -379.3474022555165, 30.97011153306812, -0.144000006839633, 1.0240000486373901, -0.0800000037997961, 0.0, 0.0, 0.0, 0.0, 0.0, 1.715101129797909E9, 0.0, 2024-05-07 11:58:49.797
21.0, -987.3429380520247, -210.1748977098614, -507.02384684281424, -41.90183910354972, -0.144000006839633, 1.0240000486373901, -0.0800000037997961, 0.0, 0.0, 0.0, 0.0, 0.0, 1.7151011297979212E9, 0.0, 2024-05-07 11:58:49.797
22.0, -910.1065241671167, -118.77174279280007, -402.48242338141426, 30.038876444101334, -0.09600000455975533, 1.0240000486373901, -0.0800000037997961, 0.0, 0.0, 0.0, 0.0, 0.0, 1.715101129798591E9, 0.0, 2024-05-07 11:58:49.798
22.0, -837.3205912294798, -77.56926498096436, -339.1883565313183, 71.65648315101862, -0.09600000455975533, 1.0240000486373901, -0.0800000037997961, 0.0, 0.0, 0.0, 0.0, 0.0, 1.7151011297986023E9, 0.0, 2024-05-07 11:58:49.798
23.0, -1003.2412527636625, -213.94471686519682, -499.39071103325114, -35.656206177547574, -0.09600000455975533, 1.0240000486373901, -0.0800000037997961, 0.0, 0.0, 0.0, 0.0, 0.0, 1.7151011297994242E9, 0.0, 2024-05-07 11:58:49.799
23.0, -983.419782998506, -165.4494341397658, -441.13428942346945, 8.497052699327469, -0.09600000455975533, 1.0240000486373901, -0.0800000037997961, 0.0, 0.0, 0.0, 0.0, 0.0, 1.7151011297994325E9, 0.0, 2024-05-07 11:58:49.799
24.0, -852.8561356454156, -37.50371675565839, -344.34193867025897, 73.46285482961684, -0.09600000455975533, 1.0240000486373901, -0.0800000037997961, 0.0, 0.0, 0.0, 0.0, 0.0, 1.7151011298275676E9, 0.0, 2024-05-07 11:58:49.827
24.0, -984.9531419803388, -194.20926479902118, -458.59214241662994, -22.94428622815758, -0.09600000455975533, 1.0240000486373901, -0.0800000037997961, 0.0, 0.0, 0.0, 0.0, 0.0, 1.7151011298275905E9, 0.0, 2024-05-07 11:58:49.827
25.0, -1058.5020145089366, -231.18939556088299, -575.5986524303444, -79.49531345814466, -0.09600000455975533, 1.0240000486373901, -0.0800000037997961, 0.0, 0.0, 0.0, 0.0, 0.0, 1.7151011298574529E9, 0.0, 2024-05-07 11:58:49.857
25.0, -860.5603295541368, -77.08681788668036, -338.63859123783186, 66.2149287154898, -0.09600000455975533, 1.0240000486373901, -0.0800000037997961, 0.0, 0.0, 0.0, 0.0, 0.0, 1.7151011298574708E9, 0.0, 2024-05-07 11:58:49.857
26.0, -928.5517107485794, -134.72241610381752, -449.3358900262974, 15.875875311903656, -0.09600000455975533, 1.0240000486373901, -0.0800000037997961, 0.0, 0.0, 0.0, 0.0, 0.0, 1.7151011298579607E9, 0.0, 2024-05-07 11:58:49.857
26.0, -1018.8665547785349, -232.2590069482103, -504.626570971217, -37.78420925233513, -0.09600000455975533, 1.0240000486373901, -0.0800000037997961, 0.0, 0.0, 0.0, 0.0, 0.0, 1.7151011298579721E9, 0.0, 2024-05-07 11:58:49.857
27.0, -886.8667858424596, -134.3559059081599, -382.97136531258, 17.902901087887585, -0.09600000455975533, 1.0240000486373901, -0.0800000037997961, 0.0, 0.0, 0.0, 0.0, 0.0, 1.7151011298587246E9, 0.0, 2024-05-07 11:58:49.858
27.0, -849.2433922882192, -59.30359359737486, -383.14714061049744, 68.74310108553618, -0.09600000455975533, 1.0240000486373901, -0.0800000037997961, 0.0, 0.0, 0.0, 0.0, 0.0, 1.715101129858744E9, 0.0, 2024-05-07 11:58:49.858
28.0, -993.4464547797106, -215.8109269430861, -465.88120743026957, -47.03672174271196, -0.09600000455975533, 1.0240000486373901, -0.0800000037997961, 0.0, 0.0, 0.0, 0.0, 0.0, 1.715101129859332E9, 0.0, 2024-05-07 11:58:49.859
28.0, -997.9717337260954, -186.91271998547018, -519.2832388975658, -31.02621003240347, -0.09600000455975533, 1.0240000486373901, -0.0800000037997961, 0.0, 0.0, 0.0, 0.0, 0.0, 1.7151011298593504E9, 0.0, 2024-05-07 11:58:49.859
29.0, -824.2496408843435, -27.589241973124444, -302.563516265247, 95.2328124716878, -0.09600000455975533, 1.0240000486373901, -0.0800000037997961, 0.0, 0.0, 0.0, 0.0, 0.0, 1.715101129860309E9, 0.0, 2024-05-07 11:58:49.860
29.0, -1007.5795367122628, -188.22542486991733, -485.71763679524884, -31.84150822274387, -0.09600000455975533, 1.0240000486373901, -0.0800000037997961, 0.0, 0.0, 0.0, 0.0, 0.0, 1.7151011298603315E9, 0.0, 2024-05-07 11:58:49.860
30.0, -1082.762745521497, -266.2846167450771, -572.3860783684067, -83.60920340940356, -0.09600000455975533, 1.0240000486373901, -0.0800000037997961, 0.0, 0.0, 0.0, 0.0, 0.0, 1.7151011298876877E9, 0.0, 2024-05-07 11:58:49.887
30.0, -868.2981825624593, -64.96580213028938, -358.31420490471646, 41.643786006607115, -0.09600000455975533, 1.0240000486373901, -0.0800000037997961, 0.0, 0.0, 0.0, 0.0, 0.0, 1.715101129887708E9, 0.0, 2024-05-07 11:58:49.887
31.0, -955.5126495291479, -130.04380125924945, -460.7238853913732, 20.300176959484816, -0.09600000455975533, 1.008000047877431, -0.0800000037997961, 0.0, 0.0, 0.0, 0.0, 0.0, 1.7151011298885238E9, 0.0, 2024-05-07 11:58:49.888
31.0, -1076.1730417995714, -240.86077684629709, -489.01248865621164, -84.77605219557881, -0.09600000455975533, 1.008000047877431, -0.0800000037997961, 0.0, 0.0, 0.0, 0.0, 0.0, 1.7151011298885536E9, 0.0, 2024-05-07 11:58:49.888
32.0, -979.5714259441011, -131.70805673953146, -467.395866912324, 19.552196968346834, -0.09600000455975533, 1.008000047877431, -0.0800000037997961, 0.0, 0.0, 0.0, 0.0, 0.0, 1.7151011299179273E9, 0.0, 2024-05-07 11:58:49.917
32.0, -820.1619302327745, -61.341839073225856, -308.6483334931545, 68.9974142825231, -0.09600000455975533, 1.008000047877431, -0.0800000037997961, 0.0, 0.0, 0.0, 0.0, 0.0, 1.7151011299179533E9, 0.0, 2024-05-07 11:58:49.917
33.0, -1008.6678475993685, -225.8488184241578, -501.5897722071968, -34.66139278933406, -0.09600000455975533, 1.008000047877431, -0.0800000037997961, 0.0, 0.0, 0.0, 0.0, 0.0, 1.7151011299180355E9, 0.0, 2024-05-07 11:58:49.918
33.0, -982.0696791145019, -216.9515964295715, -508.4076098264195, -64.9209233308211, -0.09600000455975533, 1.008000047877431, -0.0800000037997961, 0.0, 0.0, 0.0, 0.0, 0.0, 1.7151011299180508E9, 0.0, 2024-05-07 11:58:49.918
34.0, -827.7427074429579, -36.29198917001486, -311.1952053629793, 97.10650234948844, -0.09600000455975533, 1.008000047877431, -0.0800000037997961, 0.0, 0.0, 0.0, 0.0, 0.0, 1.7151011299186592E9, 0.0, 2024-05-07 11:58:49.918
34.0, -1014.2178591336124, -191.33702163305134, -545.7542507839389, -31.927525921724737, -0.09600000455975533, 1.008000047877431, -0.0800000037997961, 0.0, 0.0, 0.0, 0.0, 0.0, 1.715101129918672E9, 0.0, 2024-05-07 11:58:49.918
35.0, -1117.8130879062228, -261.36290840338916, -553.8174750884064, -87.61089636199176, -0.09600000455975533, 1.008000047877431, -0.0800000037997961, 0.0, 0.0, 0.0, 0.0, 0.0, 1.7151011299194725E9, 0.0, 2024-05-07 11:58:49.919
35.0, -888.6993368207477, -64.24774133879691, -377.4886719775386, 56.03866093605757, -0.09600000455975533, 1.008000047877431, -0.0800000037997961, 0.0, 0.0, 0.0, 0.0, 0.0, 1.7151011299194832E9, 0.0, 2024-05-07 11:58:49.919
36.0, -923.3495099102147, -125.23802981618792, -419.7046626773663, 12.195813755504787, -0.09600000455975533, 1.008000047877431, -0.0800000037997961, 0.0, 0.0, 0.0, 0.0, 0.0, 1.715101129947526E9, 0.0, 2024-05-07 11:58:49.947
36.0, -1034.1515258974396, -225.45238902885467, -508.35151132708415, -49.81546740978956, -0.09600000455975533, 1.008000047877431, -0.0800000037997961, 0.0, 0.0, 0.0, 0.0, 0.0, 1.7151011299475453E9, 0.0, 2024-05-07 11:58:49.947
37.0, -912.3093252410181, -128.19629068113863, -464.8602147423662, 13.983485934324563, -0.09600000455975533, 1.008000047877431, -0.0800000037997961, 0.0, 0.0, 0.0, 0.0, 0.0, 1.715101129948264E9, 0.0, 2024-05-07 11:58:49.948
37.0, -843.5737039553933, -53.364632467739284, -332.6921503082849, 67.03770670574158, -0.09600000455975533, 1.008000047877431, -0.0800000037997961, 0.0, 0.0, 0.0, 0.0, 0.0, 1.7151011299482784E9, 0.0, 2024-05-07 11:58:49.948
38.0, -991.13893650705, -206.41629825439304, -541.3823077357374, -29.171219654381275, -0.09600000455975533, 1.008000047877431, -0.0800000037997961, 0.0, 0.0, 0.0, 0.0, 0.0, 1.7151011299776635E9, 0.0, 2024-05-07 11:58:49.977
38.0, -981.2618607240729, -150.2542206197977, -415.45987622765824, -6.84401691891253, -0.09600000455975533, 1.008000047877431, -0.0800000037997961, 0.0, 0.0, 0.0, 0.0, 0.0, 1.715101129977688E9, 0.0, 2024-05-07 11:58:49.977
39.0, -833.1057239794172, -24.058776414953172, -369.7582987691276, 79.46913415845484, -0.09600000455975533, 1.008000047877431, -0.0800000037997961, 0.0, 0.0, 0.0, 0.0, 0.0, 1.715101129978027E9, 0.0, 2024-05-07 11:58:49.978
39.0, -1023.4254928245209, -183.2775372285396, -490.9086179337464, -33.32250860519707, -0.09600000455975533, 1.008000047877431, -0.0800000037997961, 0.0, 0.0, 0.0, 0.0, 0.0, 1.7151011299780366E9, 0.0, 2024-05-07 11:58:49.978
40.0, -1094.8987208777107, -202.00695620663464, -580.0977520770393, -68.71318188589066, -0.09600000455975533, 1.008000047877431, -0.09600000455975533, 0.0, 0.0, 0.0, 0.0, 0.0, 1.715101129978809E9, 0.0, 2024-05-07 11:58:49.978
40.0, -905.2147350250743, -57.53462091833353, -393.0653552929871, 65.56044622324407, -0.09600000455975533, 1.008000047877431, -0.09600000455975533, 0.0, 0.0, 0.0, 0.0, 0.0, 1.715101129978826E9, 0.0, 2024-05-07 11:58:49.978
41.0, -942.7932497798465, -119.91615217924118, -424.6226311190985, -4.259746049530804, -0.09600000455975533, 1.0240000486373901, -0.09600000455975533, 0.0, 0.0, 0.0, 0.0, 0.0, 1.7151011299799013E9, 0.0, 2024-05-07 11:58:49.979
41.0, -1054.2497482593171, -252.25625201128423, -564.3565131635405, -66.80209300853312, -0.09600000455975533, 1.0240000486373901, -0.09600000455975533, 0.0, 0.0, 0.0, 0.0, 0.0, 1.7151011299799132E9, 0.0, 2024-05-07 11:58:49.979
42.0, -981.9163432163186, -127.53432838898152, -416.4285103161819, -5.348056936636567, -0.0800000037997961, 1.0240000486373901, -0.09600000455975533, 0.0, 0.0, 0.0, 0.0, 0.0, 1.715101130007677E9, 0.0, 2024-05-07 11:58:50.007
42.0, -866.4768512840383, -56.532327730208635, -437.5589450658299, 58.70520960446447, -0.0800000037997961, 1.0240000486373901, -0.09600000455975533, 0.0, 0.0, 0.0, 0.0, 0.0, 1.7151011300076945E9, 0.0, 2024-05-07 11:58:50.007
43.0, -1024.0537960170768, -208.59292002860457, -491.2975675291382, -44.1308194771409, -0.0800000037997961, 1.0240000486373901, -0.09600000455975533, 0.0, 0.0, 0.0, 0.0, 0.0, 1.7151011300083306E9, 0.0, 2024-05-07 11:58:50.008
43.0, -1086.8841152726673, -181.28043065220118, -608.0161052462645, -91.95292021054775, -0.0800000037997961, 1.0240000486373901, -0.09600000455975533, 0.0, 0.0, 0.0, 0.0, 0.0, 1.715101130008346E9, 0.0, 2024-05-07 11:58:50.008
44.0, -1304.3312484463677, -27.084355479106307, -777.2372284913436, 109.50053080264479, -0.0800000037997961, 1.0240000486373901, -0.09600000455975533, 0.0, 0.0, 0.0, 0.0, 0.0, 1.7151011300377066E9, 0.0, 2024-05-07 11:58:50.037
44.0, -1484.0446610171348, -191.19490543473512, -971.5212912894785, -34.003170397132635, -0.0800000037997961, 1.0240000486373901, -0.09600000455975533, 0.0, 0.0, 0.0, 0.0, 0.0, 1.7151011300377357E9, 0.0, 2024-05-07 11:58:50.037
45.0, -1556.3556266603991, -247.80577106401324, -1071.522476204671, -67.04892640560865, -0.0800000037997961, 1.0240000486373901, -0.09600000455975533, 0.0, 0.0, 0.0, 0.0, 0.0, 1.7151011300381224E9, 0.0, 2024-05-07 11:58:50.038
45.0, -1402.765415280126, -78.86701026558876, -1314.988093370106, 55.97508263681084, -0.0800000037997961, 1.0240000486373901, -0.09600000455975533, 0.0, 0.0, 0.0, 0.0, 0.0, 1.715101130038143E9, 0.0, 2024-05-07 11:58:50.038
46.0, -1469.5263693891466, -145.17169658001512, -1476.9930796506815, -7.7453328082337976, -0.0800000037997961, 1.0240000486373901, -0.09600000455975533, 0.0, 0.0, 0.0, 0.0, 0.0, 1.7151011300388885E9, 0.0, 2024-05-07 11:58:50.038
46.0, -1558.6145262336358, -236.57859139703214, -1482.3149572876282, -65.30613302625716, -0.0800000037997961, 1.0240000486373901, -0.09600000455975533, 0.0, 0.0, 0.0, 0.0, 0.0, 1.7151011300389144E9, 0.0, 2024-05-07 11:58:50.038
47.0, -1450.8306095106527, -135.67609059251845, -1400.5570043562911, 22.55159673281014, -0.0800000037997961, 1.0240000486373901, -0.09600000455975533, 0.0, 0.0, 0.0, 0.0, 0.0, 1.7151011300398033E9, 0.0, 2024-05-07 11:58:50.039
47.0, -1426.2669466016814, -92.31569050624967, -1388.9184356941842, 38.1282800482586, -0.0800000037997961, 1.0240000486373901, -0.09600000455975533, 0.0, 0.0, 0.0, 0.0, 0.0, 1.7151011300398364E9, 0.0, 2024-05-07 11:58:50.039
48.0, -1523.395888350904, -218.93748330604285, -1492.1770734707825, -66.30842621438205, -0.0800000037997961, 1.0240000486373901, -0.09600000455975533, 0.0, 0.0, 0.0, 0.0, 0.0, 1.715101130067634E9, 0.0, 2024-05-07 11:58:50.067
48.0, -1456.8555883392692, -161.88530948199332, -1476.0431450619362, -4.596337045542896, -0.0800000037997961, 1.0240000486373901, -0.09600000455975533, 0.0, 0.0, 0.0, 0.0, 0.0, 1.7151011300676546E9, 0.0, 2024-05-07 11:58:50.067
49.0, -1272.4972200235352, -8.369896100834012, -1272.667385471519, 95.65168126672506, -0.0800000037997961, 1.0240000486373901, -0.09600000455975533, 0.0, 0.0, 0.0, 0.0, 0.0, 1.715101130068231E9, 0.0, 2024-05-07 11:58:50.068
49.0, -1494.4116636943072, -186.6845860881731, -1028.4500484149903, -30.405386639758945, -0.0800000037997961, 1.0240000486373901, -0.09600000455975533, 0.0, 0.0, 0.0, 0.0, 0.0, 1.7151011300682497E9, 0.0, 2024-05-07 11:58:50.068
50.0, -1594.5699244076386, -230.97996116336435, -1038.0989903006703, -108.22896481771022, -0.0800000037997961, 1.0240000486373901, -0.12800000607967377, 0.0, 0.0, 0.0, 0.0, 0.0, 1.7151011301277092E9, 0.0, 2024-05-07 11:58:50.127
50.0, -1356.7758655250072, -70.60931116342545, -886.7601986937225, 63.71293564513326, -0.0800000037997961, 1.0240000486373901, -0.12800000607967377, 0.0, 0.0, 0.0, 0.0, 0.0, 1.7151011301277275E9, 0.0, 2024-05-07 11:58:50.127
51.0, -1494.3929641945288, -164.46210055146366, -993.7325571263209, -47.10777984187007, -0.0800000037997961, 1.008000047877431, -0.12800000607967377, 0.0, 0.0, 0.0, 0.0, 0.0, 1.7151011301278884E9, 0.0, 2024-05-07 11:58:50.127
51.0, -1519.8766424925998, -253.55399729590863, -995.6810450032353, -59.69254319276661, -0.0800000037997961, 1.008000047877431, -0.12800000607967377, 0.0, 0.0, 0.0, 0.0, 0.0, 1.7151011301279044E9, 0.0, 2024-05-07 11:58:50.127
52.0, -1460.8647610917687, -145.2502344790846, -985.0859084287658, -14.727726025506854, -0.06400000303983688, 1.008000047877431, -0.12800000607967377, 0.0, 0.0, 0.0, 0.0, 0.0, 1.7151011301285703E9, 0.0, 2024-05-07 11:58:50.128
52.0, -1362.6437685554847, -58.75382830388844, -868.2402141131461, 66.51038081198931, -0.06400000303983688, 1.008000047877431, -0.12800000607967377, 0.0, 0.0, 0.0, 0.0, 0.0, 1.7151011301285799E9, 0.0, 2024-05-07 11:58:50.128
53.0, -1576.5211672214791, -229.79441287741065, -1090.4987285798416, -89.47336653992534, -0.06400000303983688, 1.008000047877431, -0.12800000607967377, 0.0, 0.0, 0.0, 0.0, 0.0, 1.7151011301292388E9, 0.0, 2024-05-07 11:58:50.129
53.0, -1515.6355959428474, -161.50009978655726, -975.5940423412248, 7.685494408942759, -0.06400000303983688, 1.008000047877431, -0.12800000607967377, 0.0, 0.0, 0.0, 0.0, 0.0, 1.71510113012925E9, 0.0, 2024-05-07 11:58:50.129
54.0, -1289.0911561269313, -26.355074987746775, -850.3447928251699, 86.5973834739998, -0.06400000303983688, 1.008000047877431, -0.12800000607967377, 0.0, 0.0, 0.0, 0.0, 0.0, 1.715101130129882E9, 0.0, 2024-05-07 11:58:50.129
54.0, -1449.8470158223063, -175.79399741720408, -1000.44941744674, -6.148395527154207, -0.06400000303983688, 1.008000047877431, -0.12800000607967377, 0.0, 0.0, 0.0, 0.0, 0.0, 1.715101130129891E9, 0.0, 2024-05-07 11:58:50.129
55.0, -1509.9771273098886, -198.3867330495268, -987.3373282020912, -68.1409771926701, -0.06400000303983688, 1.008000047877431, -0.12800000607967377, 0.0, 0.0, 0.0, 0.0, 0.0, 1.7151011301305568E9, 0.0, 2024-05-07 11:58:50.130
55.0, -1342.788639690727, -66.70485560968518, -871.3181517766789, 74.55116571672261, -0.06400000303983688, 1.008000047877431, -0.12800000607967377, 0.0, 0.0, 0.0, 0.0, 0.0, 1.7151011301305714E9, 0.0, 2024-05-07 11:58:50.130
56.0, -1421.5845918571576, -145.3325122781098, -914.1886249687523, -39.47838393226266, -0.06400000303983688, 1.008000047877431, -0.12800000607967377, 0.0, 0.0, 0.0, 0.0, 0.0, 1.715101130131428E9, 0.0, 2024-05-07 11:58:50.131
56.0, -1557.0138490526006, -233.09300463832915, -1056.3310025846586, -78.65009606815875, -0.06400000303983688, 1.008000047877431, -0.12800000607967377, 0.0, 0.0, 0.0, 0.0, 0.0, 1.7151011301314416E9, 0.0, 2024-05-07 11:58:50.131
57.0, -1408.0872929170728, -145.583085575141, -869.0031537041068, -1.3875028835609555, -0.06400000303983688, 1.008000047877431, -0.12800000607967377, 0.0, 0.0, 0.0, 0.0, 0.0, 1.7151011301879172E9, 0.0, 2024-05-07 11:58:50.187
57.0, -1399.2349497219548, -92.98887249827385, -975.0068780481815, 44.852620168589056, -0.06400000303983688, 1.008000047877431, -0.12800000607967377, 0.0, 0.0, 0.0, 0.0, 0.0, 1.7151011301879544E9, 0.0, 2024-05-07 11:58:50.187
58.0, -1562.8742722831666, -245.58427049033344, -1019.6538037192076, -126.51333570107818, -0.06400000303983688, 1.008000047877431, -0.12800000607967377, 0.0, 0.0, 0.0, 0.0, 0.0, 1.7151011301880987E9, 0.0, 2024-05-07 11:58:50.188
58.0, -1656.2221751771867, -250.5957364309579, -1162.2748885294423, -127.87091938499361, -0.06400000303983688, 1.008000047877431, -0.12800000607967377, 0.0, 0.0, 0.0, 0.0, 0.0, 1.715101130188114E9, 0.0, 2024-05-07 11:58:50.188
59.0, -1846.487715472933, -46.831027245149016, -1369.2166427276097, 45.36124656256288, -0.06400000303983688, 1.008000047877431, -0.12800000607967377, 0.0, 0.0, 0.0, 0.0, 0.0, 1.7151011301886852E9, 0.0, 2024-05-07 11:58:50.188
59.0, -2046.2170726065524, -235.1162905143574, -1454.5835991161875, -29.33577525243163, -0.06400000303983688, 1.008000047877431, -0.12800000607967377, 0.0, 0.0, 0.0, 0.0, 0.0, 1.7151011301886947E9, 0.0, 2024-05-07 11:58:50.188
60.0, -2091.458642370533, -245.7413462884724, -1640.2359728165902, -87.5211387630552, -0.06400000303983688, 1.008000047877431, -0.1600000075995922, 0.0, 0.0, 0.0, 0.0, 0.0, 1.7151011301893415E9, 0.0, 2024-05-07 11:58:50.189
60.0, -2313.2739786924794, -50.862639397382736, -1763.015018411912, 94.95231997501105, -0.06400000303983688, 1.008000047877431, -0.1600000075995922, 0.0, 0.0, 0.0, 0.0, 0.0, 1.715101130189354E9, 0.0, 2024-05-07 11:58:50.189
61.0, -2357.902204863727, -135.9191840896383, -1926.4187272759154, 18.706979578360915, -0.06400000303983688, 1.0400000493973494, -0.1600000075995922, 0.0, 0.0, 0.0, 0.0, 0.0, 1.715101130190182E9, 0.0, 2024-05-07 11:58:50.190
61.0, -2481.5993958981708, -234.2561135245487, -1958.084460200742, -35.667425877414644, -0.06400000303983688, 1.0400000493973494, -0.1600000075995922, 0.0, 0.0, 0.0, 0.0, 0.0, 1.715101130190196E9, 0.0, 2024-05-07 11:58:50.190
62.0, -2453.8904771264642, -151.2527739079669, -1941.3820669986308, -4.603816845454276, -0.09600000455975533, 1.0400000493973494, -0.1600000075995922, 0.0, 0.0, 0.0, 0.0, 0.0, 1.715101130190864E9, 0.0, 2024-05-07 11:58:50.190
62.0, -2286.9600426042452, -87.68195446114987, -1840.5431444933638, 58.45463630743325, -0.09600000455975533, 1.0400000493973494, -0.1600000075995922, 0.0, 0.0, 0.0, 0.0, 0.0, 1.7151011301908786E9, 0.0, 2024-05-07 11:58:50.190
63.0, -2067.508323054295, -287.64318539202213, -2078.711193371564, -99.50751812104136, -0.09600000455975533, 1.0400000493973494, -0.1600000075995922, 0.0, 0.0, 0.0, 0.0, 0.0, 1.7151011302174833E9, 0.0, 2024-05-07 11:58:50.217
63.0, -2130.607915106695, -298.41409726440907, -2150.210600724444, -121.97683705482632, -0.09600000455975533, 1.0400000493973494, -0.1600000075995922, 0.0, 0.0, 0.0, 0.0, 0.0, 1.7151011302175033E9, 0.0, 2024-05-07 11:58:50.217
64.0, -1886.9534329934977, -67.3294189022854, -2320.8603657525964, 56.22191603388637, -0.09600000455975533, 1.0400000493973494, -0.1600000075995922, 0.0, 0.0, 0.0, 0.0, 0.0, 1.7151011302180576E9, 0.0, 2024-05-07 11:58:50.218
64.0, -2056.860827880446, -228.35829129442573, -2560.3672988149337, -67.53511339984834, -0.09600000455975533, 1.0400000493973494, -0.1600000075995922, 0.0, 0.0, 0.0, 0.0, 0.0, 1.7151011302180674E9, 0.0, 2024-05-07 11:58:50.218
65.0, -2027.6297698267736, -229.08383188582957, -2425.9403348076157, -33.87975369859487, -0.09600000455975533, 1.0400000493973494, -0.1600000075995922, 0.0, 0.0, 0.0, 0.0, 0.0, 1.7151011302476232E9, 0.0, 2024-05-07 11:58:50.247
65.0, -1880.389908571262, -94.26417838316411, -2374.7448443141766, 46.064347754232585, -0.09600000455975533, 1.0400000493973494, -0.1600000075995922, 0.0, 0.0, 0.0, 0.0, 0.0, 1.7151011302476482E9, 0.0, 2024-05-07 11:58:50.247
66.0, -1942.4348488361575, -159.49925331026316, -2383.256856613327, 34.19390529487282, -0.09600000455975533, 1.0400000493973494, -0.1600000075995922, 0.0, 0.0, 0.0, 0.0, 0.0, 1.7151011302479846E9, 0.0, 2024-05-07 11:58:50.247
66.0, -2028.093517421279, -262.1146282944828, -2477.4163177977316, -76.12940349802375, -0.09600000455975533, 1.0400000493973494, -0.1600000075995922, 0.0, 0.0, 0.0, 0.0, 0.0, 1.7151011302479968E9, 0.0, 2024-05-07 11:58:50.247
67.0, -1949.8435906483792, -166.42180812824517, -2494.646036893595, 1.9522277768701315, -0.09600000455975533, 1.0400000493973494, -0.1600000075995922, 0.0, 0.0, 0.0, 0.0, 0.0, 1.715101130248705E9, 0.0, 2024-05-07 11:58:50.248
67.0, -1837.489516179543, -75.56841850467026, -2739.345821044408, 69.19188908021897, -0.09600000455975533, 1.0400000493973494, -0.1600000075995922, 0.0, 0.0, 0.0, 0.0, 0.0, 1.7151011302487192E9, 0.0, 2024-05-07 11:58:50.248
68.0, -2029.7390734017827, -239.68270836025476, -2580.4543014769442, -68.15967669244856, -0.09600000455975533, 1.0400000493973494, -0.1600000075995922, 0.0, 0.0, 0.0, 0.0, 0.0, 1.7151011302493846E9, 0.0, 2024-05-07 11:58:50.249
68.0, -1919.8907319032587, -205.8366137612611, -2419.0327395894565, -43.270642487332225, -0.09600000455975533, 1.0400000493973494, -0.1600000075995922, 0.0, 0.0, 0.0, 0.0, 0.0, 1.7151011302493956E9, 0.0, 2024-05-07 11:58:50.249
69.0, -1812.75381787261, -46.068087654188275, -2331.4480225271545, 76.64550969190896, -0.09600000455975533, 1.0400000493973494, -0.1600000075995922, 0.0, 0.0, 0.0, 0.0, 0.0, 1.7151011302778847E9, 0.0, 2024-05-07 11:58:50.277
69.0, -1635.981836616993, -270.3424081970006, -2096.9693849552423, -95.83119646459818, -0.09600000455975533, 1.0400000493973494, -0.1600000075995922, 0.0, 0.0, 0.0, 0.0, 0.0, 1.7151011302779145E9, 0.0, 2024-05-07 11:58:50.277
70.0, -1565.0359344575554, -247.14380877185613, -1982.6331635098904, -69.33774517849088, -0.09600000455975533, 1.0400000493973494, -0.17600000835955143, 0.0, 0.0, 0.0, 0.0, 0.0, 1.7151011302782192E9, 0.0, 2024-05-07 11:58:50.278
70.0, -1438.7245533540845, -124.90517872013152, -1938.6519400309771, 16.799630600959063, -0.09600000455975533, 1.0400000493973494, -0.17600000835955143, 0.0, 0.0, 0.0, 0.0, 0.0, 1.715101130278244E9, 0.0, 2024-05-07 11:58:50.278
71.0, -1437.9990127626806, -158.3698035236448, -1867.7097777714953, 28.082908767275512, -0.09600000455975533, 1.0400000493973494, -0.17600000835955143, 0.0, 0.0, 0.0, 0.0, 0.0, 1.7151011303077512E9, 0.0, 2024-05-07 11:58:50.307
71.0, -1536.687492793426, -239.08806426730007, -2055.2246216498315, -75.87135040108114, -0.09600000455975533, 1.0400000493973494, -0.17600000835955143, 0.0, 0.0, 0.0, 0.0, 0.0, 1.7151011303077743E9, 0.0, 2024-05-07 11:58:50.307
72.0, -1517.7561192177236, -150.83764501288533, -1914.219173620455, -3.1938745621591806, -0.12800000607967377, 1.0400000493973494, -0.17600000835955143, 0.0, 0.0, 0.0, 0.0, 0.0, 1.7151011303079753E9, 0.0, 2024-05-07 11:58:50.307
72.0, -1315.9473777087405, -63.6231780461967, -1792.1750183664262, 75.57963820453733, -0.12800000607967377, 1.0400000493973494, -0.17600000835955143, 0.0, 0.0, 0.0, 0.0, 0.0, 1.7151011303079996E9, 0.0, 2024-05-07 11:58:50.307
73.0, -1551.8527871137485, -246.90071527473629, -1997.099096538499, -24.847895305603743, -0.12800000607967377, 1.0400000493973494, -0.17600000835955143, 0.0, 0.0, 0.0, 0.0, 0.0, 1.7151011303086848E9, 0.0, 2024-05-07 11:58:50.308
73.0, -1486.1726640919223, -178.50542488507926, -2027.9682307727635, -38.91739893890917, -0.12800000607967377, 1.0400000493973494, -0.17600000835955143, 0.0, 0.0, 0.0, 0.0, 0.0, 1.7151011303086953E9, 0.0, 2024-05-07 11:58:50.308
74.0, -1372.614341837354, -52.104286182671785, -1795.664345025085, 90.20264703128487, -0.12800000607967377, 1.0400000493973494, -0.17600000835955143, 0.0, 0.0, 0.0, 0.0, 0.0, 1.715101130309455E9, 0.0, 2024-05-07 11:58:50.309
74.0, -1588.7431602766737, -228.50040749274194, -1577.428092960734, -90.35598292946815, -0.12800000607967377, 1.0400000493973494, -0.17600000835955143, 0.0, 0.0, 0.0, 0.0, 0.0, 1.7151011303094673E9, 0.0, 2024-05-07 11:58:50.309
75.0, -1602.2778582163155, -243.1495956191793, -1514.7174505037256, -113.77523645199835, -0.12800000607967377, 1.0400000493973494, -0.17600000835955143, 0.0, 0.0, 0.0, 0.0, 0.0, 1.7151011303375328E9, 0.0, 2024-05-07 11:58:50.337
75.0, -1376.8179893875495, -90.82721032388508, -1340.064122573007, 35.36823388095945, -0.12800000607967377, 1.0400000493973494, -0.17600000835955143, 0.0, 0.0, 0.0, 0.0, 0.0, 1.7151011303375585E9, 0.0, 2024-05-07 11:58:50.337
76.0, -1518.534018408507, -194.34016129747033, -1565.7820444987155, 0.5273258937522769, -0.12800000607967377, 1.0400000493973494, -0.17600000835955143, 0.0, 0.0, 0.0, 0.0, 0.0, 1.7151011303381853E9, 0.0, 2024-05-07 11:58:50.338
76.0, -1542.5553958239034, -230.57979186810553, -1470.4482547282241, -56.07232003565878, -0.12800000607967377, 1.0400000493973494, -0.17600000835955143, 0.0, 0.0, 0.0, 0.0, 0.0, 1.7151011303382068E9, 0.0, 2024-05-07 11:58:50.338
77.0, -1410.5294475881383, -126.69659079890698, -1450.7015829621814, 66.18500951584429, -0.12800000607967377, 1.0400000493973494, -0.17600000835955143, 0.0, 0.0, 0.0, 0.0, 0.0, 1.7151011303679168E9, 0.0, 2024-05-07 11:58:50.367
77.0, -1434.4909866042435, -65.52678712364286, -1292.8516255323775, 55.731989139690995, -0.12800000607967377, 1.0400000493973494, -0.17600000835955143, 0.0, 0.0, 0.0, 0.0, 0.0, 1.715101130367957E9, 0.0, 2024-05-07 11:58:50.367
78.0, -1548.9132257485762, -232.7377141425386, -1101.636150647886, -12.614682550542057, -0.12800000607967377, 1.0400000493973494, -0.17600000835955143, 0.0, 0.0, 0.0, 0.0, 0.0, 1.7151011303679938E9, 0.0, 2024-05-07 11:58:50.367
78.0, -1421.5397130576894, -144.04224679339677, -864.6798293553293, -12.341669853776693, -0.12800000607967377, 1.0400000493973494, -0.17600000835955143, 0.0, 0.0, 0.0, 0.0, 0.0, 1.7151011303680048E9, 0.0, 2024-05-07 11:58:50.368
79.0, -1279.7451461376622, -27.72387837152928, -848.1158124515787, 122.76969584543258, -0.12800000607967377, 1.0400000493973494, -0.17600000835955143, 0.0, 0.0, 0.0, 0.0, 0.0, 1.7151011303689237E9, 0.0, 2024-05-07 11:58:50.368
79.0, -1062.8589979573153, -216.1437780391425, -1013.703622889705, -39.83741432800889, -0.12800000607967377, 1.0400000493973494, -0.17600000835955143, 0.0, 0.0, 0.0, 0.0, 0.0, 1.7151011303689544E9, 0.0, 2024-05-07 11:58:50.368
80.0, -961.9677168526687, -229.24838748387992, -1063.1899791033939, -103.76726417057216, -0.12800000607967377, 1.0400000493973494, -0.09600000455975533, 0.0, 0.0, 0.0, 0.0, 0.0, 1.7151011303697703E9, 0.0, 2024-05-07 11:58:50.369
80.0, -902.4621686576866, -94.21929958369583, -900.4370128316805, 39.272689434699714, -0.12800000607967377, 1.0400000493973494, -0.09600000455975533, 0.0, 0.0, 0.0, 0.0, 0.0, 1.7151011303697891E9, 0.0, 2024-05-07 11:58:50.369
81.0, -1007.3925417144783, -137.57221987005323, -1015.9326032632962, 12.756798748858273, -0.12800000607967377, 1.008000047877431, -0.09600000455975533, 0.0, 0.0, 0.0, 0.0, 0.0, 1.7151011303975303E9, 0.0, 2024-05-07 11:58:50.397
81.0, -999.8117645042948, -284.5428083287552, -1001.0178822400048, -65.5118275238201, -0.12800000607967377, 1.008000047877431, -0.09600000455975533, 0.0, 0.0, 0.0, 0.0, 0.0, 1.715101130397545E9, 0.0, 2024-05-07 11:58:50.397
82.0, -967.5326879867353, -128.23742958065122, -948.3002524645999, 24.57862250879407, -0.06400000303983688, 1.008000047877431, -0.09600000455975533, 0.0, 0.0, 0.0, 0.0, 0.0, 1.7151011303982017E9, 0.0, 2024-05-07 11:58:50.398
82.0, -904.6088712322526, -105.35672165174037, -875.6302564255893, 54.43798375502229, -0.06400000303983688, 1.008000047877431, -0.09600000455975533, 0.0, 0.0, 0.0, 0.0, 0.0, 1.715101130398216E9, 0.0, 2024-05-07 11:58:50.398
83.0, -1028.7511103614233, -239.35733706410974, -977.449032719247, -35.162539383396506, -0.06400000303983688, 1.008000047877431, -0.09600000455975533, 0.0, 0.0, 0.0, 0.0, 0.0, 1.7151011304274745E9, 0.0, 2024-05-07 11:58:50.427
83.0, -1075.5484785069712, -239.31993806455284, -1028.8053389107808, -82.28527882508934, -0.06400000303983688, 1.008000047877431, -0.09600000455975533, 0.0, 0.0, 0.0, 0.0, 0.0, 1.7151011304274895E9, 0.0, 2024-05-07 11:58:50.427
84.0, -1251.3630453739315, -8.699007296934724, -1242.2096402323805, 146.17024986818433, -0.06400000303983688, 1.008000047877431, -0.09600000455975533, 0.0, 0.0, 0.0, 0.0, 0.0, 1.715101130427964E9, 0.0, 2024-05-07 11:58:50.427
84.0, -1478.9583970773965, -170.40480158105493, -1445.6003594226204, 32.17061941884458, -0.06400000303983688, 1.008000047877431, -0.09600000455975533, 0.0, 0.0, 0.0, 0.0, 0.0, 1.7151011304279797E9, 0.0, 2024-05-07 11:58:50.427
85.0, -1563.943883670494, -282.92717154789716, -1489.6526410006918, -67.89788369555026, -0.06400000303983688, 1.008000047877431, -0.09600000455975533, 0.0, 0.0, 0.0, 0.0, 0.0, 1.7151011304288197E9, 0.0, 2024-05-07 11:58:50.428
85.0, -1376.750671188347, -48.97398991975933, -1377.6127181281336, 99.65711411926895, -0.06400000303983688, 1.008000047877431, -0.09600000455975533, 0.0, 0.0, 0.0, 0.0, 0.0, 1.7151011304288373E9, 0.0, 2024-05-07 11:58:50.428
86.0, -1505.16013616696, -169.17063459567726, -1494.2265386465006, -13.194367043673992, -0.06400000303983688, 1.008000047877431, -0.09600000455975533, 0.0, 0.0, 0.0, 0.0, 0.0, 1.7151011304295652E9, 0.0, 2024-05-07 11:58:50.429
86.0, -1598.810970957391, -281.0871407696977, -1566.6983199878596, -53.05796067137271, -0.06400000303983688, 1.008000047877431, -0.09600000455975533, 0.0, 0.0, 0.0, 0.0, 0.0, 1.7151011304295764E9, 0.0, 2024-05-07 11:58:50.429
