%OpenBCI Raw EXG Data
%Number of channels = 4
%Sample Rate = 200 Hz
%Board = OpenBCI_GUI$BoardGanglionNative
Sample Index, EXG Channel 0, EXG Channel 1, EXG Channel 2, EXG Channel 3, Accel Channel 0, Accel Channel 1, Accel Channel 2, Other, Other, Other, Other, Other, Timestamp, Other, Timestamp (Formatted)
0.0, 37.24753360869363, -209.28293157042935, 21.79987684171647, -83.19968436425552, 0.0, 0.0, 0.0, 0.0, 0.0, 0.0, 0.0, 0.0, 1.71510115169882E9, 0.0, 2024-05-07 11:59:11.698
1.0, 67.72023844765499, -146.29553651669994, 128.4356442783028, -25.48554824804887, 0.0, 1.0400000493973494, 0.0, 0.0, 0.0, 0.0, 0.0, 0.0, 1.7151011516996615E9, 0.0, 2024-05-07 11:59:11.699
1.0, 56.57533657969907, -47.19192759087309, 92.54008450359106, 59.72807224234566, 0.0, 1.0400000493973494, 0.0, 0.0, 0.0, 0.0, 0.0, 0.0, 1.7151011516996813E9, 0.0, 2024-05-07 11:59:11.699
2.0, -87.32479401538149, -240.10344710526988, 34.459438191726804, -103.44750272436067, -0.0800000037997961, 1.0400000493973494, 0.0, 0.0, 0.0, 0.0, 0.0, 0.0, 1.7151011517289376E9, 0.0, 2024-05-07 11:59:11.728
2.0, -24.75626775668934, -191.57450528023764, -7.468580211512744, -60.22547893645242, -0.0800000037997961, 1.0400000493973494, 0.0, 0.0, 0.0, 0.0, 0.0, 0.0, 1.7151011517289555E9, 0.0, 2024-05-07 11:59:11.728
3.0, 105.80363969644532, -34.29675254365429, -216.55703698424622, 48.49341277545318, -0.0800000037997961, 1.0400000493973494, 0.0, 0.0, 0.0, 0.0, 0.0, 0.0, 1.71510115178897E9, 0.0, 2024-05-07 11:59:11.788
3.0, -33.31689875526354, -172.3177604083903, 20.16928046103567, -49.121715968009084, -0.0800000037997961, 1.0400000493973494, 0.0, 0.0, 0.0, 0.0, 0.0, 0.0, 1.7151011517889807E9, 0.0, 2024-05-07 11:59:11.788
4.0, -76.45290484419093, -190.38147719437256, 3.3247710606083274, -89.23588289273903, -0.0800000037997961, 1.0400000493973494, 0.0, 0.0, 0.0, 0.0, 0.0, 0.0, 1.7151011517892165E9, 0.0, 2024-05-07 11:59:11.789
4.0, 95.51891481829807, -66.08964206697419, 149.34168503060937, 16.494828754570335, -0.0800000037997961, 1.0400000493973494, 0.0, 0.0, 0.0, 0.0, 0.0, 0.0, 1.715101151789224E9, 0.0, 2024-05-07 11:59:11.789
5.0, -15.986202360596508, -109.79411294916645, 55.26450164522976, 20.881731402594596, -0.0800000037997961, 1.0400000493973494, 0.0, 0.0, 0.0, 0.0, 0.0, 0.0, 1.71510115178996E9, 0.0, 2024-05-07 11:59:11.789
5.0, -128.05978433275595, -210.81629055226222, 25.936206192709506, -77.95260472642258, -0.0800000037997961, 1.0400000493973494, 0.0, 0.0, 0.0, 0.0, 0.0, 0.0, 1.7151011517899685E9, 0.0, 2024-05-07 11:59:11.789
6.0, -123.67288168473169, -191.60068457992747, -100.12834151368588, -69.46303182700649, -0.0800000037997961, 1.0400000493973494, 0.0, 0.0, 0.0, 0.0, 0.0, 0.0, 1.7151011517905715E9, 0.0, 2024-05-07 11:59:11.790
6.0, -356.8462941721082, -41.899969153571874, -282.5176525027491, 62.738691706676036, -0.0800000037997961, 1.0400000493973494, 0.0, 0.0, 0.0, 0.0, 0.0, 0.0, 1.715101151790578E9, 0.0, 2024-05-07 11:59:11.790
7.0, -581.6442007087171, -235.14807966398075, -54.901731349527836, -63.3819544990547, -0.0800000037997961, 1.0400000493973494, 0.0, 0.0, 0.0, 0.0, 0.0, 0.0, 1.7151011517912805E9, 0.0, 2024-05-07 11:59:11.791
7.0, -569.8560360483825, -167.9084183606319, 26.58694878499955, -85.38378593837842, -0.0800000037997961, 1.0400000493973494, 0.0, 0.0, 0.0, 0.0, 0.0, 0.0, 1.7151011517912881E9, 0.0, 2024-05-07 11:59:11.791
8.0, -403.87553611490875, -41.062231563497335, 103.57278937287629, 67.18169285403565, -0.0800000037997961, 1.0400000493973494, 0.0, 0.0, 0.0, 0.0, 0.0, 0.0, 1.7151011517919295E9, 0.0, 2024-05-07 11:59:11.791
8.0, -599.4311648979783, -204.80253142351285, -13.927387434989214, -82.30958817480132, -0.0800000037997961, 1.0400000493973494, 0.0, 0.0, 0.0, 0.0, 0.0, 0.0, 1.7151011517919352E9, 0.0, 2024-05-07 11:59:11.791
9.0, -537.3824847331271, -229.32505543297157, 6.215713726356626, -117.93213525274768, -0.0800000037997961, 1.0400000493973494, 0.0, 0.0, 0.0, 0.0, 0.0, 0.0, 1.7151011517928016E9, 0.0, 2024-05-07 11:59:11.792
9.0, -426.9021001420915, -74.74377056444064, 96.53803755622357, 37.456968006212264, -0.0800000037997961, 1.0400000493973494, 0.0, 0.0, 0.0, 0.0, 0.0, 0.0, 1.715101151792807E9, 0.0, 2024-05-07 11:59:11.792
12.0, -617.9661090783775, -242.05567488214, -0.8938360894098878, -97.81521339109167, -0.0800000037997961, 1.0400000493973494, 0.0, 0.0, 0.0, 0.0, 0.0, 0.0, 1.7151011518188162E9, 0.0, 2024-05-07 11:59:11.818
12.0, -712.6977749560028, -253.2865944490768, -207.47842984180897, -204.65293542528525, -0.0800000037997961, 1.0400000493973494, 0.0, 0.0, 0.0, 0.0, 0.0, 0.0, 1.7151011518188283E9, 0.0, 2024-05-07 11:59:11.818
13.0, -877.4497177540325, -58.20967286033556, -319.9203919596039, 36.260200020391494, -0.0800000037997961, 1.0400000493973494, 0.0, 0.0, 0.0, 0.0, 0.0, 0.0, 1.715101151819499E9, 0.0, 2024-05-07 11:59:11.819
13.0, -690.0003221249208, -248.061954210978, -532.5823231399991, -119.89558272948489, -0.0800000037997961, 1.0400000493973494, 0.0, 0.0, 0.0, 0.0, 0.0, 0.0, 1.7151011518195095E9, 0.0, 2024-05-07 11:59:11.819
14.0, -695.2661012625322, -336.2076562666334, -685.2113802316599, -218.07543636625633, -0.0800000037997961, 1.0400000493973494, 0.0, 0.0, 0.0, 0.0, 0.0, 0.0, 1.7151011518791509E9, 0.0, 2024-05-07 11:59:11.879
14.0, -468.070918854326, -123.48962658690289, -841.99733612407, -14.849272774066776, -0.0800000037997961, 1.0400000493973494, 0.0, 0.0, 0.0, 0.0, 0.0, 0.0, 1.7151011518791885E9, 0.0, 2024-05-07 11:59:11.879
15.0, -499.51599768176675, -125.65502866124734, -932.6487711500376, -24.554313159082085, -0.0800000037997961, 1.0400000493973494, 0.0, 0.0, 0.0, 0.0, 0.0, 0.0, 1.7151011518794737E9, 0.0, 2024-05-07 11:59:11.879
15.0, -572.8367363130674, -242.5792608759366, -1000.8196675423533, -121.99366660462692, -0.0800000037997961, 1.0400000493973494, 0.0, 0.0, 0.0, 0.0, 0.0, 0.0, 1.7151011518794818E9, 0.0, 2024-05-07 11:59:11.879
16.0, -538.2090026233345, -152.39905324438587, -939.9864548631012, -23.55201997095719, -0.0800000037997961, 1.0400000493973494, 0.0, 0.0, 0.0, 0.0, 0.0, 0.0, 1.7151011518802087E9, 0.0, 2024-05-07 11:59:11.880
16.0, -395.31864501629025, -86.74136962229386, -814.583869448863, 29.707895298022777, -0.0800000037997961, 1.0400000493973494, 0.0, 0.0, 0.0, 0.0, 0.0, 0.0, 1.7151011518802218E9, 0.0, 2024-05-07 11:59:11.880
17.0, -636.9461013535038, -258.7618079842068, -1001.365692935884, -79.65799910621718, -0.0800000037997961, 1.0400000493973494, 0.0, 0.0, 0.0, 0.0, 0.0, 0.0, 1.7151011518807793E9, 0.0, 2024-05-07 11:59:11.880
17.0, -506.640507097356, -205.06806432036683, -970.2085864050314, -68.80106953484938, -0.0800000037997961, 1.0400000493973494, 0.0, 0.0, 0.0, 0.0, 0.0, 0.0, 1.7151011518807902E9, 0.0, 2024-05-07 11:59:11.880
18.0, -401.4184218440205, -86.99942271923646, -772.4538964480162, 25.773520544636995, -0.0800000037997961, 1.0400000493973494, 0.0, 0.0, 0.0, 0.0, 0.0, 0.0, 1.7151011518815794E9, 0.0, 2024-05-07 11:59:11.881
18.0, -645.9293410470709, -260.4821619638242, -591.788679338526, -114.78687939001247, -0.0800000037997961, 1.0400000493973494, 0.0, 0.0, 0.0, 0.0, 0.0, 0.0, 1.7151011518816142E9, 0.0, 2024-05-07 11:59:11.881
19.0, -595.683785142377, -247.18307772139087, -495.08608618425205, -141.9348131683655, -0.0800000037997961, 1.0400000493973494, 0.0, 0.0, 0.0, 0.0, 0.0, 0.0, 1.7151011518824604E9, 0.0, 2024-05-07 11:59:11.882
19.0, -473.64710968825966, -114.92899558832869, -509.0433928188868, -30.164163092616946, -0.0800000037997961, 1.0400000493973494, 0.0, 0.0, 0.0, 0.0, 0.0, 0.0, 1.7151011518824792E9, 0.0, 2024-05-07 11:59:11.882
21.0, -362.45614410564303, -46.01759900478646, -300.47665208997205, 1.5501885316334665, -0.0800000037997961, 1.0240000486373901, 0.0, 0.0, 0.0, 0.0, 0.0, 0.0, 1.715101151909024E9, 0.0, 2024-05-07 11:59:11.909
21.0, -204.01528248284012, 63.76716419449076, -209.009918873664, 142.3424622635357, -0.0800000037997961, 1.0240000486373901, 0.0, 0.0, 0.0, 0.0, 0.0, 0.0, 1.7151011519090385E9, 0.0, 2024-05-07 11:59:11.909
22.0, -441.4316114699468, -111.35365123068914, -401.7568827900104, 9.187064241152257, -0.09600000455975533, 1.0240000486373901, 0.0, 0.0, 0.0, 0.0, 0.0, 0.0, 1.7151011519094822E9, 0.0, 2024-05-07 11:59:11.909
22.0, -444.2140970369801, -138.901754304301, -452.77659798553213, -53.078530121129006, -0.09600000455975533, 1.0240000486373901, 0.0, 0.0, 0.0, 0.0, 0.0, 0.0, 1.715101151909492E9, 0.0, 2024-05-07 11:59:11.909
23.0, -668.022800035309, 98.2490417859517, -669.0905414726585, 173.27891469700262, -0.09600000455975533, 1.0240000486373901, 0.0, 0.0, 0.0, 0.0, 0.0, 0.0, 1.71510115193878E9, 0.0, 2024-05-07 11:59:11.938
23.0, -860.2424380579032, -61.47460552165285, -842.2404296211898, 40.44140817085281, -0.09600000455975533, 1.0240000486373901, 0.0, 0.0, 0.0, 0.0, 0.0, 0.0, 1.7151011519387903E9, 0.0, 2024-05-07 11:59:11.938
24.0, -985.615104272496, -108.97881475882605, -997.2031842852011, -26.573859135154635, -0.09600000455975533, 1.0240000486373901, 0.0, 0.0, 0.0, 0.0, 0.0, 0.0, 1.7151011519392698E9, 0.0, 2024-05-07 11:59:11.939
24.0, -749.9527883646078, 43.76991913141683, -1165.8446230371483, 112.95806831168011, -0.09600000455975533, 1.0240000486373901, 0.0, 0.0, 0.0, 0.0, 0.0, 0.0, 1.7151011519392781E9, 0.0, 2024-05-07 11:59:11.939
25.0, -788.2531038108282, -3.1695652124471962, -1360.4016985320486, 70.98891100892797, -0.09600000455975533, 1.0240000486373901, 0.0, 0.0, 0.0, 0.0, 0.0, 0.0, 1.7151011519399922E9, 0.0, 2024-05-07 11:59:11.939
25.0, -922.6351890186779, -141.58326257253066, -1321.1776277967729, 11.019615219440311, -0.09600000455975533, 1.0240000486373901, 0.0, 0.0, 0.0, 0.0, 0.0, 0.0, 1.7151011519400012E9, 0.0, 2024-05-07 11:59:11.940
26.0, -893.5387673634104, -89.92776438454166, -1489.5591435017996, -57.6748671666719, -0.09600000455975533, 1.0240000486373901, 0.0, 0.0, 0.0, 0.0, 0.0, 0.0, 1.7151011519408424E9, 0.0, 2024-05-07 11:59:11.940
26.0, -751.6843620440923, 51.63118883827701, -1678.3436834150925, 112.50554041704163, -0.09600000455975533, 1.0240000486373901, 0.0, 0.0, 0.0, 0.0, 0.0, 0.0, 1.715101151940861E9, 0.0, 2024-05-07 11:59:11.940
27.0, -887.0575207401998, -113.97906099958345, -1890.6316245999187, 4.706664094235748, -0.09600000455975533, 1.0240000486373901, 0.0, 0.0, 0.0, 0.0, 0.0, 0.0, 1.7151011519692397E9, 0.0, 2024-05-07 11:59:11.969
27.0, -991.2399138058536, -60.8986609284766, -1961.6373651586473, -55.599222691264, -0.09600000455975533, 1.0240000486373901, 0.0, 0.0, 0.0, 0.0, 0.0, 0.0, 1.7151011519692717E9, 0.0, 2024-05-07 11:59:11.969
28.0, -1139.3231225013733, 96.20331651018932, -2107.226060583722, -287.52350859344006, -0.09600000455975533, 1.0240000486373901, 0.0, 0.0, 0.0, 0.0, 0.0, 0.0, 1.7151011519695437E9, 0.0, 2024-05-07 11:59:11.969
28.0, -1290.7628914071247, -72.69430538872257, -2315.340273417998, -464.61151139531285, -0.09600000455975533, 1.0240000486373901, 0.0, 0.0, 0.0, 0.0, 0.0, 0.0, 1.7151011519695528E9, 0.0, 2024-05-07 11:59:11.969
29.0, -1263.573818729259, -110.68046923866495, -2300.750923690852, -460.4789219442755, -0.09600000455975533, 1.0240000486373901, 0.0, 0.0, 0.0, 0.0, 0.0, 0.0, 1.7151011519991696E9, 0.0, 2024-05-07 11:59:11.999
29.0, -1191.2516333861277, 27.751927621196955, -2246.0698464387096, -376.08059964422137, -0.09600000455975533, 1.0240000486373901, 0.0, 0.0, 0.0, 0.0, 0.0, 0.0, 1.7151011519991949E9, 0.0, 2024-05-07 11:59:11.999
30.0, -1328.3713253615424, -50.87946894718334, -2237.804667536635, -450.16427786648273, -0.09600000455975533, 1.0240000486373901, -0.04800000227987766, 0.0, 0.0, 0.0, 0.0, 0.0, 1.7151011519994185E9, 0.0, 2024-05-07 11:59:11.999
30.0, -1374.0392437204719, -126.4478874518536, -2408.15711051831, -506.10570140369236, -0.09600000455975533, 1.0240000486373901, -0.04800000227987766, 0.0, 0.0, 0.0, 0.0, 0.0, 1.7151011519994285E9, 0.0, 2024-05-07 11:59:11.999
31.0, -1293.3583819763735, -36.34995761932805, -2209.3103697742335, -421.7896569026634, -0.09600000455975533, 1.0240000486373901, -0.04800000227987766, 0.0, 0.0, 0.0, 0.0, 0.0, 1.7151011520000968E9, 0.0, 2024-05-07 11:59:12.000
31.0, -1286.188993761316, 26.102631740737706, -2263.31078523444, -414.55669038835913, -0.09600000455975533, 1.0240000486373901, -0.04800000227987766, 0.0, 0.0, 0.0, 0.0, 0.0, 1.7151011520001109E9, 0.0, 2024-05-07 11:59:12.000
32.0, -1389.23445724044, -109.69687555031851, -2348.292531927582, -505.06974911596626, -0.0800000037997961, 1.0240000486373901, -0.04800000227987766, 0.0, 0.0, 0.0, 0.0, 0.0, 1.7151011520008864E9, 0.0, 2024-05-07 11:59:12.000
32.0, -1496.7191819669679, -124.05809138016775, -2434.437387506943, -536.1370980478823, -0.0800000037997961, 1.0240000486373901, -0.04800000227987766, 0.0, 0.0, 0.0, 0.0, 0.0, 1.7151011520009031E9, 0.0, 2024-05-07 11:59:12.000
33.0, -1615.6274311081506, 74.29124266980216, -2658.7734163990244, -355.15211949218065, -0.0800000037997961, 1.0240000486373901, -0.04800000227987766, 0.0, 0.0, 0.0, 0.0, 0.0, 1.7151011520290887E9, 0.0, 2024-05-07 11:59:12.029
33.0, -1826.1950183133595, -91.13201217027381, -2764.5452669458464, -443.9485641401261, -0.0800000037997961, 1.0240000486373901, -0.04800000227987766, 0.0, 0.0, 0.0, 0.0, 0.0, 1.7151011520291069E9, 0.0, 2024-05-07 11:59:12.029
34.0, -1866.9000894310884, -98.03586748847738, -2986.523288915865, -542.7193219698966, -0.0800000037997961, 1.0240000486373901, -0.04800000227987766, 0.0, 0.0, 0.0, 0.0, 0.0, 1.715101152029606E9, 0.0, 2024-05-07 11:59:12.029
34.0, -1635.149708876852, 58.96139275142923, -3139.3038119557314, -351.69645193312317, -0.0800000037997961, 1.0240000486373901, -0.04800000227987766, 0.0, 0.0, 0.0, 0.0, 0.0, 1.715101152029632E9, 0.0, 2024-05-07 11:59:12.029
35.0, -1716.4476541136391, -10.395051926840097, -3254.6273669893853, -415.24857188016176, -0.0800000037997961, 1.0240000486373901, -0.04800000227987766, 0.0, 0.0, 0.0, 0.0, 0.0, 1.715101152058804E9, 0.0, 2024-05-07 11:59:12.058
35.0, -1816.7106320257299, -109.52858005231246, -3322.869321480859, -485.3081177501008, -0.0800000037997961, 1.0240000486373901, -0.04800000227987766, 0.0, 0.0, 0.0, 0.0, 0.0, 1.7151011520588157E9, 0.0, 2024-05-07 11:59:12.058
36.0, -1794.7648990857415, -6.9805232672952116, -3236.069983409252, -428.7907496197149, -0.0800000037997961, 1.0240000486373901, -0.04800000227987766, 0.0, 0.0, 0.0, 0.0, 0.0, 1.7151011520592637E9, 0.0, 2024-05-07 11:59:12.059
36.0, -1750.7238372075371, 38.14510959805921, -3273.517601665575, -406.36256958544254, -0.0800000037997961, 1.0240000486373901, -0.04800000227987766, 0.0, 0.0, 0.0, 0.0, 0.0, 1.715101152059272E9, 0.0, 2024-05-07 11:59:12.059
37.0, -1899.672832742799, -126.32821065327153, -3370.556785815861, -503.9776983289048, -0.0800000037997961, 1.0240000486373901, -0.04800000227987766, 0.0, 0.0, 0.0, 0.0, 0.0, 1.7151011520599988E9, 0.0, 2024-05-07 11:59:12.059
37.0, -1748.2255840371363, -64.2720506885089, -3332.278909769375, -462.45732902083546, -0.0800000037997961, 1.0240000486373901, -0.04800000227987766, 0.0, 0.0, 0.0, 0.0, 0.0, 1.7151011520600078E9, 0.0, 2024-05-07 11:59:12.060
38.0, -1630.6132102306, 93.14781824639067, -3127.467028595973, -345.6901726042852, -0.0800000037997961, 1.0240000486373901, -0.04800000227987766, 0.0, 0.0, 0.0, 0.0, 0.0, 1.715101152060712E9, 0.0, 2024-05-07 11:59:12.060
38.0, -1873.587030551862, -92.82618685020134, -3344.2839886271395, -475.5581985656172, -0.0800000037997961, 1.0240000486373901, -0.04800000227987766, 0.0, 0.0, 0.0, 0.0, 0.0, 1.7151011520607195E9, 0.0, 2024-05-07 11:59:12.060
39.0, -1785.8751568910666, -76.18363204738125, -3275.4025112432428, -448.16343139018863, -0.0800000037997961, 1.0240000486373901, -0.04800000227987766, 0.0, 0.0, 0.0, 0.0, 0.0, 1.7151011521187968E9, 0.0, 2024-05-07 11:59:12.118
39.0, -1694.3149261758663, 50.57653705077246, -3189.695223958697, -367.34045344777405, -0.0800000037997961, 1.0240000486373901, -0.04800000227987766, 0.0, 0.0, 0.0, 0.0, 0.0, 1.7151011521188095E9, 0.0, 2024-05-07 11:59:12.118
40.0, -1704.1733024590649, -13.031681395601481, -3213.0621188818477, -411.47501282487065, -0.0800000037997961, 1.0240000486373901, -0.04800000227987766, 0.0, 0.0, 0.0, 0.0, 0.0, 1.7151011521192937E9, 0.0, 2024-05-07 11:59:12.119
40.0, -1841.0760802370496, -86.46087712561712, -3273.19223036943, -470.76364682242274, -0.0800000037997961, 1.0240000486373901, -0.04800000227987766, 0.0, 0.0, 0.0, 0.0, 0.0, 1.7151011521193056E9, 0.0, 2024-05-07 11:59:12.119
41.0, -1781.9108629380353, -25.6239245464094, -3259.9791638259776, -449.6556514725089, -0.0800000037997961, 0.9920000471174717, -0.04800000227987766, 0.0, 0.0, 0.0, 0.0, 0.0, 1.7151011521200132E9, 0.0, 2024-05-07 11:59:12.120
41.0, -1646.63120174082, 34.229434344451874, -3160.1761936084367, -387.09086511377245, -0.0800000037997961, 0.9920000471174717, -0.04800000227987766, 0.0, 0.0, 0.0, 0.0, 0.0, 1.7151011521200223E9, 0.0, 2024-05-07 11:59:12.120
42.0, -1427.104684191756, -143.6439474481158, -2948.3127310685813, -523.3615997992456, -0.0800000037997961, 0.9920000471174717, -0.04800000227987766, 0.0, 0.0, 0.0, 0.0, 0.0, 1.7151011521205735E9, 0.0, 2024-05-07 11:59:12.120
42.0, -1415.1332644335926, -94.38198523176834, -2893.478317918256, -512.8263016240671, -0.0800000037997961, 0.9920000471174717, -0.04800000227987766, 0.0, 0.0, 0.0, 0.0, 0.0, 1.7151011521205792E9, 0.0, 2024-05-07 11:59:12.120
43.0, -1217.0232839807868, 58.06755666201934, -2689.848245130852, -388.8074791934341, -0.0800000037997961, 0.9920000471174717, -0.04800000227987766, 0.0, 0.0, 0.0, 0.0, 0.0, 1.7151011521212416E9, 0.0, 2024-05-07 11:59:12.121
43.0, -1458.3029296221212, -101.33819914935157, -2447.6766333500855, -530.4861092148349, -0.0800000037997961, 0.9920000471174717, -0.04800000227987766, 0.0, 0.0, 0.0, 0.0, 0.0, 1.7151011521212473E9, 0.0, 2024-05-07 11:59:12.121
44.0, -1538.0824754768983, -153.89875312661752, -2546.978456973564, -560.7643392561004, -0.0800000037997961, 0.9920000471174717, -0.04800000227987766, 0.0, 0.0, 0.0, 0.0, 0.0, 1.715101152122193E9, 0.0, 2024-05-07 11:59:12.122
44.0, -1755.1668383548968, 71.00387060875073, -2726.05047670193, -388.50080739706755, -0.0800000037997961, 0.9920000471174717, -0.04800000227987766, 0.0, 0.0, 0.0, 0.0, 0.0, 1.7151011521221988E9, 0.0, 2024-05-07 11:59:12.122
45.0, -1760.6083927904256, -7.930457856040448, -2720.4967252677307, -406.1269558882341, -0.0800000037997961, 0.9920000471174717, -0.04800000227987766, 0.0, 0.0, 0.0, 0.0, 0.0, 1.7151011521489832E9, 0.0, 2024-05-07 11:59:12.148
45.0, -1773.821459333878, -93.09171974705532, -2800.766198016703, -457.8385525755584, -0.0800000037997961, 0.9920000471174717, -0.04800000227987766, 0.0, 0.0, 0.0, 0.0, 0.0, 1.7151011521490085E9, 0.0, 2024-05-07 11:59:12.149
46.0, -1749.1867383257486, -4.4486109972931445, -2691.908930006437, -398.87528987415135, -0.0800000037997961, 0.9920000471174717, -0.04800000227987766, 0.0, 0.0, 0.0, 0.0, 0.0, 1.7151011521497645E9, 0.0, 2024-05-07 11:59:12.149
46.0, -1689.0940258377232, 19.14641782315448, -2762.308806772344, -385.359291434288, -0.0800000037997961, 0.9920000471174717, -0.04800000227987766, 0.0, 0.0, 0.0, 0.0, 0.0, 1.7151011521497853E9, 0.0, 2024-05-07 11:59:12.149
47.0, -1876.1900009210221, -113.17498250911012, -2829.567167575471, -503.58500883355737, -0.0800000037997961, 0.9920000471174717, -0.04800000227987766, 0.0, 0.0, 0.0, 0.0, 0.0, 1.715101152179237E9, 0.0, 2024-05-07 11:59:12.179
47.0, -1867.3077385262586, -81.80844158073887, -2790.5974100371823, -435.4215922411531, -0.0800000037997961, 0.9920000471174717, -0.04800000227987766, 0.0, 0.0, 0.0, 0.0, 0.0, 1.7151011521792607E9, 0.0, 2024-05-07 11:59:12.179
48.0, -1680.099566444289, 81.45315108494833, -2694.3510846775025, -375.916044046171, -0.0800000037997961, 0.9920000471174717, -0.04800000227987766, 0.0, 0.0, 0.0, 0.0, 0.0, 1.7151011521793485E9, 0.0, 2024-05-07 11:59:12.179
48.0, -1861.4248758959584, -84.4637705492787, -2778.999980274588, -490.61877568718046, -0.0800000037997961, 0.9920000471174717, -0.04800000227987766, 0.0, 0.0, 0.0, 0.0, 0.0, 1.7151011521793587E9, 0.0, 2024-05-07 11:59:12.179
49.0, -1870.9840601827018, -89.08628689451143, -2872.6882140645757, -497.462792606093, -0.0800000037997961, 0.9920000471174717, -0.04800000227987766, 0.0, 0.0, 0.0, 0.0, 0.0, 1.7151011521800456E9, 0.0, 2024-05-07 11:59:12.180
49.0, -1720.995372459758, 40.639622868504375, -2627.8594033652917, -405.7454860927537, -0.0800000037997961, 0.9920000471174717, -0.04800000227987766, 0.0, 0.0, 0.0, 0.0, 0.0, 1.7151011521800585E9, 0.0, 2024-05-07 11:59:12.180
50.0, -1733.4567191121168, -20.440423207823187, -2828.542434987612, -412.0509574180469, -0.0800000037997961, 0.9920000471174717, -0.03200000151991844, 0.0, 0.0, 0.0, 0.0, 0.0, 1.7151011521810057E9, 0.0, 2024-05-07 11:59:12.181
50.0, -1881.534317957703, -132.57384357927367, -2892.393746931106, -579.0786293391138, -0.0800000037997961, 0.9920000471174717, -0.03200000151991844, 0.0, 0.0, 0.0, 0.0, 0.0, 1.7151011521810148E9, 0.0, 2024-05-07 11:59:12.181
51.0, -1798.8488698373549, -20.567579806316644, -2865.522565749474, -462.49098812043667, -0.0800000037997961, 1.0240000486373901, -0.03200000151991844, 0.0, 0.0, 0.0, 0.0, 0.0, 1.7151011522388463E9, 0.0, 2024-05-07 11:59:12.238
51.0, -1762.2988275703974, 36.51077331742272, -2675.9694763952866, -362.26166930794716, -0.0800000037997961, 1.0240000486373901, -0.03200000151991844, 0.0, 0.0, 0.0, 0.0, 0.0, 1.7151011522388585E9, 0.0, 2024-05-07 11:59:12.238
52.0, -1865.8491775435396, -110.84128493675962, -2836.022234898992, -504.976251617074, -0.06400000303983688, 1.0240000486373901, -0.03200000151991844, 0.0, 0.0, 0.0, 0.0, 0.0, 1.7151011522393093E9, 0.0, 2024-05-07 11:59:12.239
52.0, -1866.5447989352979, -28.933736007194966, -2892.3488681316376, -461.97862182650715, -0.06400000303983688, 1.0240000486373901, -0.03200000151991844, 0.0, 0.0, 0.0, 0.0, 0.0, 1.7151011522393174E9, 0.0, 2024-05-07 11:59:12.239
53.0, -1684.3780119935982, 73.4235858800821, -3083.21653232025, -350.4959440473467, -0.06400000303983688, 1.0240000486373901, -0.03200000151991844, 0.0, 0.0, 0.0, 0.0, 0.0, 1.7151011522400064E9, 0.0, 2024-05-07 11:59:12.240
53.0, -1847.0075615667738, -84.76670244568959, -2931.0306533733383, -493.99964524712414, -0.06400000303983688, 1.0240000486373901, -0.03200000151991844, 0.0, 0.0, 0.0, 0.0, 0.0, 1.7151011522400153E9, 0.0, 2024-05-07 11:59:12.240
54.0, -1877.3194507076405, -110.18680244451389, -2835.9212576001883, -497.088802610524, -0.06400000303983688, 1.0240000486373901, -0.03200000151991844, 0.0, 0.0, 0.0, 0.0, 0.0, 1.7151011522406175E9, 0.0, 2024-05-07 11:59:12.240
54.0, -1747.7917556422763, 39.16236238600686, -2744.301188485697, -437.6206534150988, -0.06400000303983688, 1.0240000486373901, -0.03200000151991844, 0.0, 0.0, 0.0, 0.0, 0.0, 1.7151011522406251E9, 0.0, 2024-05-07 11:59:12.240
55.0, -1853.2831136924215, -38.49292029393837, -2825.127906328067, -447.8044009944424, -0.06400000303983688, 1.0240000486373901, -0.03200000151991844, 0.0, 0.0, 0.0, 0.0, 0.0, 1.715101152241264E9, 0.0, 2024-05-07 11:59:12.241
55.0, -1839.0714938607998, -128.4150748285465, -2830.000995970331, -514.685031902045, -0.06400000303983688, 1.0240000486373901, -0.03200000151991844, 0.0, 0.0, 0.0, 0.0, 0.0, 1.7151011522412698E9, 0.0, 2024-05-07 11:59:12.241
56.0, -1716.5112324128859, -0.9742439384572208, -2804.5397570719942, -411.7854245211929, -0.06400000303983688, 1.0240000486373901, -0.03200000151991844, 0.0, 0.0, 0.0, 0.0, 0.0, 1.715101152242278E9, 0.0, 2024-05-07 11:59:12.242
56.0, -1651.840882379096, 54.88116189977154, -2613.9058366306126, -357.3848397657275, -0.06400000303983688, 1.0240000486373901, -0.03200000151991844, 0.0, 0.0, 0.0, 0.0, 0.0, 1.7151011522422926E9, 0.0, 2024-05-07 11:59:12.242
57.0, -1837.2389428825118, -112.36342421872541, -2409.3950174036436, -498.0574366990477, -0.06400000303983688, 1.0240000486373901, -0.03200000151991844, 0.0, 0.0, 0.0, 0.0, 0.0, 1.7151011522698667E9, 0.0, 2024-05-07 11:59:12.269
57.0, -1761.7453223769553, -51.167441243771464, -2251.941489369143, -443.3651397470385, -0.06400000303983688, 1.0240000486373901, -0.03200000151991844, 0.0, 0.0, 0.0, 0.0, 0.0, 1.7151011522698987E9, 0.0, 2024-05-07 11:59:12.269
58.0, -1654.0511632529087, 63.25105800060555, -2162.3334864308126, -382.9246165631339, -0.06400000303983688, 1.0240000486373901, -0.03200000151991844, 0.0, 0.0, 0.0, 0.0, 0.0, 1.7151011522699835E9, 0.0, 2024-05-07 11:59:12.269
58.0, -1847.82659965707, -99.02320107677951, -2333.878957498353, -472.06139210704714, -0.06400000303983688, 1.0240000486373901, -0.03200000151991844, 0.0, 0.0, 0.0, 0.0, 0.0, 1.7151011522699957E9, 0.0, 2024-05-07 11:59:12.269
59.0, -1833.0689544319175, -129.4921660157852, -2253.9946944448166, -501.99929125234485, -0.06400000303983688, 1.0240000486373901, -0.03200000151991844, 0.0, 0.0, 0.0, 0.0, 0.0, 1.7151011522988565E9, 0.0, 2024-05-07 11:59:12.298
59.0, -1696.6673232479952, 31.667602874804288, -2244.4691692576744, -380.2842471944168, -0.06400000303983688, 1.0240000486373901, -0.03200000151991844, 0.0, 0.0, 0.0, 0.0, 0.0, 1.7151011522988777E9, 0.0, 2024-05-07 11:59:12.298
60.0, -1814.5639294511639, -57.35323577048257, -2286.3672684612684, -466.9639084674418, -0.06400000303983688, 1.0240000486373901, -0.03200000151991844, 0.0, 0.0, 0.0, 0.0, 0.0, 1.715101152299352E9, 0.0, 2024-05-07 11:59:12.299
60.0, -1823.4312322461046, -125.87194285867736, -2365.1482610278763, -499.1981061855331, -0.06400000303983688, 1.0240000486373901, -0.03200000151991844, 0.0, 0.0, 0.0, 0.0, 0.0, 1.7151011522993677E9, 0.0, 2024-05-07 11:59:12.299
61.0, -1735.7268383852206, -43.515605934429914, -2264.63844971871, -431.25908359047025, -0.06400000303983688, 1.0240000486373901, -0.03200000151991844, 0.0, 0.0, 0.0, 0.0, 0.0, 1.7151011523000777E9, 0.0, 2024-05-07 11:59:12.300
61.0, -1700.1342105069198, 35.68425542721525, -2246.245621736627, -386.1371906250715, -0.06400000303983688, 1.0240000486373901, -0.03200000151991844, 0.0, 0.0, 0.0, 0.0, 0.0, 1.7151011523000877E9, 0.0, 2024-05-07 11:59:12.300
62.0, -1851.1214515180327, -117.19537496147677, -2341.7813661047257, -474.84387767408043, -0.09600000455975533, 1.0240000486373901, -0.03200000151991844, 0.0, 0.0, 0.0, 0.0, 0.0, 1.7151011523012092E9, 0.0, 2024-05-07 11:59:12.301
62.0, -1807.1664073388092, -70.22223151801154, -2323.2015431248583, -473.13474339433014, -0.09600000455975533, 1.0240000486373901, -0.03200000151991844, 0.0, 0.0, 0.0, 0.0, 0.0, 1.7151011523012335E9, 0.0, 2024-05-07 11:59:12.301
63.0, -1625.0931178960018, 90.1334588821046, -2111.508246032987, -331.44115377310663, -0.09600000455975533, 1.0240000486373901, -0.03200000151991844, 0.0, 0.0, 0.0, 0.0, 0.0, 1.7151011523289142E9, 0.0, 2024-05-07 11:59:12.328
63.0, -1853.6683233878575, -105.97941499436274, -2316.5146020040847, -467.8166056573391, -0.09600000455975533, 1.0240000486373901, -0.03200000151991844, 0.0, 0.0, 0.0, 0.0, 0.0, 1.7151011523289402E9, 0.0, 2024-05-07 11:59:12.328
64.0, -1831.8721864460967, -67.937152645085, -2326.9115238809027, -484.1225694641471, -0.09600000455975533, 1.0240000486373901, -0.03200000151991844, 0.0, 0.0, 0.0, 0.0, 0.0, 1.7151011523298352E9, 0.0, 2024-05-07 11:59:12.329
64.0, -1725.543090805877, 25.392050749156624, -2214.295656415168, -386.5597993200645, -0.09600000455975533, 1.0240000486373901, -0.03200000151991844, 0.0, 0.0, 0.0, 0.0, 0.0, 1.715101152329851E9, 0.0, 2024-05-07 11:59:12.329
65.0, -1881.6465149563737, -72.51105029089376, -2381.9591113287024, -514.4157591052353, -0.09600000455975533, 1.0240000486373901, -0.03200000151991844, 0.0, 0.0, 0.0, 0.0, 0.0, 1.7151011523888135E9, 0.0, 2024-05-07 11:59:12.388
65.0, -1966.4150873520412, -135.58446304360405, -2389.4725703396834, -536.0286409491673, -0.09600000455975533, 1.0240000486373901, -0.03200000151991844, 0.0, 0.0, 0.0, 0.0, 0.0, 1.7151011523888266E9, 0.0, 2024-05-07 11:59:12.388
66.0, -1860.3029059092514, -61.209072624798864, -2375.825675401371, -477.8956360379234, -0.09600000455975533, 1.0240000486373901, -0.03200000151991844, 0.0, 0.0, 0.0, 0.0, 0.0, 1.715101152419145E9, 0.0, 2024-05-07 11:59:12.419
66.0, -1721.1075694584288, 12.67639089981094, -2220.013963447418, -417.13722135778517, -0.09600000455975533, 1.0240000486373901, -0.03200000151991844, 0.0, 0.0, 0.0, 0.0, 0.0, 1.7151011524191692E9, 0.0, 2024-05-07 11:59:12.419
67.0, -1902.627353707794, -112.78977281367406, -2397.195463748183, -504.3928272239864, -0.09600000455975533, 1.0240000486373901, -0.03200000151991844, 0.0, 0.0, 0.0, 0.0, 0.0, 1.7151011524193184E9, 0.0, 2024-05-07 11:59:12.419
67.0, -1816.2468844312243, -73.48716417932883, -2289.916433519218, -510.7693566484377, -0.09600000455975533, 1.0240000486373901, -0.03200000151991844, 0.0, 0.0, 0.0, 0.0, 0.0, 1.7151011524193308E9, 0.0, 2024-05-07 11:59:12.419
68.0, -1641.9825060958974, 71.29184290533885, -2185.8649369520135, -333.5990760475397, -0.09600000455975533, 1.0240000486373901, -0.03200000151991844, 0.0, 0.0, 0.0, 0.0, 0.0, 1.7151011524200556E9, 0.0, 2024-05-07 11:59:12.420
68.0, -1830.5707012615167, -75.96297794999555, -2286.8833746551536, -468.3663709508255, -0.09600000455975533, 1.0240000486373901, -0.03200000151991844, 0.0, 0.0, 0.0, 0.0, 0.0, 1.715101152420066E9, 0.0, 2024-05-07 11:59:12.420
69.0, -1872.898888960015, -166.03472848283127, -2464.206991154235, -523.9786832919344, -0.09600000455975533, 1.0240000486373901, -0.03200000151991844, 0.0, 0.0, 0.0, 0.0, 0.0, 1.7151011524206135E9, 0.0, 2024-05-07 11:59:12.420
69.0, -2116.536541523412, 74.3847401686944, -2686.385097771883, -356.0235161818564, -0.09600000455975533, 1.0240000486373901, -0.03200000151991844, 0.0, 0.0, 0.0, 0.0, 0.0, 1.715101152420622E9, 0.0, 2024-05-07 11:59:12.420
70.0, -2275.5608275393024, -31.58532507577911, -2744.1702919872478, -451.7013767482713, -0.09600000455975533, 1.0240000486373901, -0.04800000227987766, 0.0, 0.0, 0.0, 0.0, 0.0, 1.7151011524214103E9, 0.0, 2024-05-07 11:59:12.421
70.0, -2296.6314238896593, -99.22141577443108, -2857.743573841639, -463.94206930324435, -0.09600000455975533, 1.0240000486373901, -0.04800000227987766, 0.0, 0.0, 0.0, 0.0, 0.0, 1.715101152421427E9, 0.0, 2024-05-07 11:59:12.421
71.0, -2280.3329398827627, -14.800654074642807, -2672.7980412328616, -422.9153667893261, -0.09600000455975533, 1.0240000486373901, -0.04800000227987766, 0.0, 0.0, 0.0, 0.0, 0.0, 1.715101152422115E9, 0.0, 2024-05-07 11:59:12.422
71.0, -2254.9988575829193, 5.720176982227713, -2817.180618922226, -388.1791760008782, -0.09600000455975533, 1.0240000486373901, -0.04800000227987766, 0.0, 0.0, 0.0, 0.0, 0.0, 1.7151011524221313E9, 0.0, 2024-05-07 11:59:12.422
72.0, -2370.565506113693, -146.10480161895975, -2805.773924057372, -539.6301646064967, -0.09600000455975533, 1.0240000486373901, -0.04800000227987766, 0.0, 0.0, 0.0, 0.0, 0.0, 1.7151011524229689E9, 0.0, 2024-05-07 11:59:12.422
72.0, -2273.3542865654454, -47.43128118803725, -2811.3987335907295, -469.38736363872886, -0.09600000455975533, 1.0240000486373901, -0.04800000227987766, 0.0, 0.0, 0.0, 0.0, 0.0, 1.715101152422983E9, 0.0, 2024-05-07 11:59:12.422
75.0, -2388.632962799631, -149.39217368001118, -2946.3418037919328, -529.3491796283051, -0.09600000455975533, 1.0240000486373901, -0.04800000227987766, 0.0, 0.0, 0.0, 0.0, 0.0, 1.7151011524789617E9, 0.0, 2024-05-07 11:59:12.478
75.0, -2454.0438130246475, -212.712419829797, -2931.5804186668247, -602.9055319568142, -0.09600000455975533, 1.0240000486373901, -0.04800000227987766, 0.0, 0.0, 0.0, 0.0, 0.0, 1.7151011524789915E9, 0.0, 2024-05-07 11:59:12.478
76.0, -2356.032254885882, -110.31021914305165, -2904.0248357933015, -479.47387381922454, -0.09600000455975533, 1.0240000486373901, -0.04800000227987766, 0.0, 0.0, 0.0, 0.0, 0.0, 1.7151011524796872E9, 0.0, 2024-05-07 11:59:12.479
76.0, -2316.681027552113, -80.56305489549413, -2782.425728634, -511.7604301366955, -0.09600000455975533, 1.0240000486373901, -0.04800000227987766, 0.0, 0.0, 0.0, 0.0, 0.0, 1.7151011524797184E9, 0.0, 2024-05-07 11:59:12.479
77.0, -2531.3064062092453, -248.20033050933853, -2583.135809745174, -602.6474788598716, -0.09600000455975533, 1.0240000486373901, -0.04800000227987766, 0.0, 0.0, 0.0, 0.0, 0.0, 1.715101152480239E9, 0.0, 2024-05-07 11:59:12.480
77.0, -2603.7258289512247, -254.48336243489757, -2543.455471215304, -710.5473324814811, -0.09600000455975533, 1.0240000486373901, -0.04800000227987766, 0.0, 0.0, 0.0, 0.0, 0.0, 1.7151011524802544E9, 0.0, 2024-05-07 11:59:12.480
78.0, -2773.7959094862454, -30.04448629403487, -2337.5178801552393, -945.1606064517982, -0.09600000455975533, 1.0240000486373901, -0.04800000227987766, 0.0, 0.0, 0.0, 0.0, 0.0, 1.7151011524809632E9, 0.0, 2024-05-07 11:59:12.480
78.0, -2954.803327441681, -198.86357029387727, -2398.437110533472, -1069.3552041803487, -0.09600000455975533, 1.0240000486373901, -0.04800000227987766, 0.0, 0.0, 0.0, 0.0, 0.0, 1.715101152480986E9, 0.0, 2024-05-07 11:59:12.480
79.0, -2932.7042586035095, -176.18855686252937, -2475.830600216519, -1072.896889438387, -0.09600000455975533, 1.0240000486373901, -0.04800000227987766, 0.0, 0.0, 0.0, 0.0, 0.0, 1.715101152481578E9, 0.0, 2024-05-07 11:59:12.481
79.0, -2778.5119233303703, -53.886348511558026, -2259.59706457844, -915.144169407431, -0.09600000455975533, 1.0240000486373901, -0.04800000227987766, 0.0, 0.0, 0.0, 0.0, 0.0, 1.7151011524815955E9, 0.0, 2024-05-07 11:59:12.481
80.0, -2885.865751558449, -165.20073079271242, -2424.4817738248967, -1031.0773281338625, -0.09600000455975533, 1.0240000486373901, -0.04800000227987766, 0.0, 0.0, 0.0, 0.0, 0.0, 1.7151011524824734E9, 0.0, 2024-05-07 11:59:12.482
80.0, -2964.2690142295323, -230.61532091768458, -2534.5096305212937, -1099.7456312202848, -0.09600000455975533, 1.0240000486373901, -0.04800000227987766, 0.0, 0.0, 0.0, 0.0, 0.0, 1.715101152482492E9, 0.0, 2024-05-07 11:59:12.482
81.0, -2885.2673675655387, -130.20648690732196, -2455.594001556281, -1050.3415528056212, -0.09600000455975533, 1.0240000486373901, -0.04800000227987766, 0.0, 0.0, 0.0, 0.0, 0.0, 1.715101152508751E9, 0.0, 2024-05-07 11:59:12.508
81.0, -2717.757248550188, -67.937152645085, -2273.4122550147586, -941.9592520897277, -0.09600000455975533, 1.0240000486373901, -0.04800000227987766, 0.0, 0.0, 0.0, 0.0, 0.0, 1.7151011525087657E9, 0.0, 2024-05-07 11:59:12.508
82.0, -2926.970991971437, -214.4552132091485, -2446.0497768693604, -1076.2553195985965, -0.11200000531971455, 1.0240000486373901, -0.04800000227987766, 0.0, 0.0, 0.0, 0.0, 0.0, 1.7151011525095003E9, 0.0, 2024-05-07 11:59:12.509
82.0, -2864.7016577092, -202.43143485160545, -2462.2547633773647, -1064.8486247337423, -0.11200000531971455, 1.0240000486373901, -0.04800000227987766, 0.0, 0.0, 0.0, 0.0, 0.0, 1.715101152509514E9, 0.0, 2024-05-07 11:59:12.509
83.0, -2777.3263750444166, -49.41716806450859, -2256.4405890158378, -955.7033844268881, -0.11200000531971455, 1.0240000486373901, -0.04800000227987766, 0.0, 0.0, 0.0, 0.0, 0.0, 1.7151011525388408E9, 0.0, 2024-05-07 11:59:12.538
83.0, -2934.6826656800695, -220.43905313825235, -2468.874386298936, -1065.5218067257665, -0.11200000531971455, 1.0240000486373901, -0.04800000227987766, 0.0, 0.0, 0.0, 0.0, 0.0, 1.7151011525388536E9, 0.0, 2024-05-07 11:59:12.538
84.0, -2905.851776921656, -208.31429748190567, -2473.433324344922, -1067.3356582042761, -0.11200000531971455, 1.0240000486373901, -0.04800000227987766, 0.0, 0.0, 0.0, 0.0, 0.0, 1.7151011525393183E9, 0.0, 2024-05-07 11:59:12.539
84.0, -2780.265936409589, -33.93772214790806, -2341.5307928076945, -952.0233228704892, -0.11200000531971455, 1.0240000486373901, -0.04800000227987766, 0.0, 0.0, 0.0, 0.0, 0.0, 1.7151011525393276E9, 0.0, 2024-05-07 11:59:12.539
85.0, -2811.583858638536, -133.50133876828477, -2297.8599810251035, -990.1329034189694, -0.11200000531971455, 1.0240000486373901, -0.04800000227987766, 0.0, 0.0, 0.0, 0.0, 0.0, 1.715101152540248E9, 0.0, 2024-05-07 11:59:12.540
85.0, -2880.727129019331, -172.07466691127047, -2416.108137824107, -1016.7834305032156, -0.11200000531971455, 1.0240000486373901, -0.04800000227987766, 0.0, 0.0, 0.0, 0.0, 0.0, 1.715101152540267E9, 0.0, 2024-05-07 11:59:12.540
86.0, -2822.0480987145565, -99.8422391670756, -2287.9829052421264, -994.4225686681457, -0.11200000531971455, 1.0240000486373901, -0.04800000227987766, 0.0, 0.0, 0.0, 0.0, 0.0, 1.7151011525692973E9, 0.0, 2024-05-07 11:59:12.569
86.0, -2861.189891650807, -99.44954967172816, -2459.876187005546, -983.1168511020951, -0.11200000531971455, 1.0240000486373901, -0.04800000227987766, 0.0, 0.0, 0.0, 0.0, 0.0, 1.7151011525693212E9, 0.0, 2024-05-07 11:59:12.569
87.0, -2955.936517128255, -219.69481304707006, -2452.676879590843, -1081.9137882315554, -0.11200000531971455, 1.0240000486373901, -0.04800000227987766, 0.0, 0.0, 0.0, 0.0, 0.0, 1.7151011525693944E9, 0.0, 2024-05-07 11:59:12.569
87.0, -2900.137209789362, -210.09448986081406, -2514.665721356403, -1107.4086862294935, -0.11200000531971455, 1.0240000486373901, -0.04800000227987766, 0.0, 0.0, 0.0, 0.0, 0.0, 1.7151011525694027E9, 0.0, 2024-05-07 11:59:12.569
88.0, -2776.9673446486704, -41.78403225494549, -2294.0602426701225, -933.0021916958503, -0.11200000531971455, 1.0240000486373901, -0.04800000227987766, 0.0, 0.0, 0.0, 0.0, 0.0, 1.7151011525699933E9, 0.0, 2024-05-07 11:59:12.569
88.0, -2980.7769326339476, -227.69819895224646, -2491.7438745279796, -1081.9586670310237, -0.11200000531971455, 1.0240000486373901, -0.04800000227987766, 0.0, 0.0, 0.0, 0.0, 0.0, 1.7151011525700023E9, 0.0, 2024-05-07 11:59:12.570
89.0, -2905.65730212396, -209.45870686834678, -2488.303166568745, -1108.1342268208973, -0.11200000531971455, 1.0240000486373901, -0.04800000227987766, 0.0, 0.0, 0.0, 0.0, 0.0, 1.7151011525708911E9, 0.0, 2024-05-07 11:59:12.570
89.0, -2779.4992569186725, -54.043424309697, -2294.546429664362, -958.3175744959153, -0.11200000531971455, 1.0240000486373901, -0.04800000227987766, 0.0, 0.0, 0.0, 0.0, 0.0, 1.715101152570902E9, 0.0, 2024-05-07 11:59:12.570
90.0, -2847.3485219147988, -131.14894169615582, -2406.253501440864, -1006.6109026237391, -0.11200000531971455, 1.0240000486373901, -0.06400000303983688, 0.0, 0.0, 0.0, 0.0, 0.0, 1.7151011525988667E9, 0.0, 2024-05-07 11:59:12.598
90.0, -2869.8440201482736, -187.76728712534532, -2348.7076608226635, -1030.636019939091, -0.11200000531971455, 1.0240000486373901, -0.06400000303983688, 0.0, 0.0, 0.0, 0.0, 0.0, 1.7151011525988822E9, 0.0, 2024-05-07 11:59:12.598
91.0, -2768.492731349077, -90.64208527607843, -2347.866183332633, -979.560206244234, -0.11200000531971455, 1.0240000486373901, -0.06400000303983688, 0.0, 0.0, 0.0, 0.0, 0.0, 1.7151011525994456E9, 0.0, 2024-05-07 11:59:12.599
91.0, -2735.4918541400693, -73.13935348344967, -2254.12185104331, -948.8144887085073, -0.11200000531971455, 1.0240000486373901, -0.06400000303983688, 0.0, 0.0, 0.0, 0.0, 0.0, 1.7151011525994587E9, 0.0, 2024-05-07 11:59:12.599
92.0, -2934.039402887691, -227.40648675570264, -2453.4996575810947, -1076.2179205990396, -0.0800000037997961, 1.0240000486373901, -0.06400000303983688, 0.0, 0.0, 0.0, 0.0, 0.0, 1.715101152658851E9, 0.0, 2024-05-07 11:59:12.658
92.0, -2990.358556320425, -190.08228519791737, -2469.3269141935743, -1065.2450541290455, -0.0800000037997961, 1.0240000486373901, -0.06400000303983688, 0.0, 0.0, 0.0, 0.0, 0.0, 1.7151011526588695E9, 0.0, 2024-05-07 11:59:12.658
93.0, -3206.560302808881, -37.51306650554761, -2238.118819132913, -916.9094021865167, -0.0800000037997961, 1.0240000486373901, -0.06400000303983688, 0.0, 0.0, 0.0, 0.0, 0.0, 1.7151011526593213E9, 0.0, 2024-05-07 11:59:12.659
93.0, -2966.0866056079976, -229.44099233159795, -2068.6359028909355, -1092.4154273071326, -0.0800000037997961, 1.0240000486373901, -0.06400000303983688, 0.0, 0.0, 0.0, 0.0, 0.0, 1.7151011526593328E9, 0.0, 2024-05-07 11:59:12.659
94.0, -2963.248021541629, -235.9484182544984, -1976.6306240810081, -1155.511279459577, -0.0800000037997961, 1.0240000486373901, -0.06400000303983688, 0.0, 0.0, 0.0, 0.0, 0.0, 1.7151011526600027E9, 0.0, 2024-05-07 11:59:12.660
94.0, -2789.525928699877, -64.25335118873045, -1817.191209170036, -960.1089865746908, -0.0800000037997961, 1.0240000486373901, -0.06400000303983688, 0.0, 0.0, 0.0, 0.0, 0.0, 1.715101152660012E9, 0.0, 2024-05-07 11:59:12.660
95.0, -2929.394447142724, -172.8076873025857, -1974.4876614063978, -1076.6779282935895, -0.0800000037997961, 1.0240000486373901, -0.06400000303983688, 0.0, 0.0, 0.0, 0.0, 0.0, 1.7151011526605947E9, 0.0, 2024-05-07 11:59:12.660
95.0, -2920.7627580449916, -225.83572877431288, -1979.465468247421, -1086.9701329716481, -0.0800000037997961, 1.0240000486373901, -0.06400000303983688, 0.0, 0.0, 0.0, 0.0, 0.0, 1.715101152660603E9, 0.0, 2024-05-07 11:59:12.660
96.0, -2809.9009036584757, -126.7096804487519, -1886.27464115154, -1006.708140022587, -0.0800000037997961, 1.0240000486373901, -0.06400000303983688, 0.0, 0.0, 0.0, 0.0, 0.0, 1.7151011526613922E9, 0.0, 2024-05-07 11:59:12.661
96.0, -2769.0050976430066, -66.62818766059354, -1857.5896084913984, -982.2940731118433, -0.0800000037997961, 1.0240000486373901, -0.06400000303983688, 0.0, 0.0, 0.0, 0.0, 0.0, 1.715101152661404E9, 0.0, 2024-05-07 11:59:12.661
97.0, -2897.5005803206004, -196.98614051612094, -1933.371201293543, -1064.7027686354704, -0.0800000037997961, 1.0240000486373901, -0.06400000303983688, 0.0, 0.0, 0.0, 0.0, 0.0, 1.7151011526624324E9, 0.0, 2024-05-07 11:59:12.662
97.0, -3021.923311946448, -229.84116162685677, -1985.0640984810889, -1132.8100867285393, -0.0800000037997961, 1.0240000486373901, -0.06400000303983688, 0.0, 0.0, 0.0, 0.0, 0.0, 1.715101152662445E9, 0.0, 2024-05-07 11:59:12.662
99.0, -2933.4297991949134, -216.47101928526536, -1969.9810819597915, -1115.5055696335621, -0.0800000037997961, 1.0240000486373901, -0.06400000303983688, 0.0, 0.0, 0.0, 0.0, 0.0, 1.7151011526889532E9, 0.0, 2024-05-07 11:59:12.688
99.0, -2836.914201038424, -75.51792985526845, -1856.2095854077488, -1037.210764061194, -0.0800000037997961, 1.0240000486373901, -0.06400000303983688, 0.0, 0.0, 0.0, 0.0, 0.0, 1.7151011526889691E9, 0.0, 2024-05-07 11:59:12.688
100.0, -3007.416240018327, -186.5480797397904, -1918.4789196699858, -1112.491210269276, -0.0800000037997961, 1.0240000486373901, -0.06400000303983688, 0.0, 0.0, 0.0, 0.0, 0.0, 1.7151011526895187E9, 0.0, 2024-05-07 11:59:12.689
100.0, -2957.9934621038847, -243.3908191663213, -2009.5641830908135, -1147.4256157553755, -0.0800000037997961, 1.0240000486373901, -0.06400000303983688, 0.0, 0.0, 0.0, 0.0, 0.0, 1.7151011526895328E9, 0.0, 2024-05-07 11:59:12.689
0.0, 49.81733735976741, -118.16400905000046, 149.70819522626698, 9.44511733809486, -0.0800000037997961, 1.0240000486373901, -0.06400000303983688, 0.0, 0.0, 0.0, 0.0, 0.0, 1.7151011526902452E9, 0.0, 2024-05-07 11:59:12.690
1.0, 37.93941510049626, -100.28354736184701, 79.87678325362504, 56.96054627513513, -0.0800000037997961, 1.0400000493973494, -0.06400000303983688, 0.0, 0.0, 0.0, 0.0, 0.0, 1.7151011527188864E9, 0.0, 2024-05-07 11:59:12.718
1.0, -10.862539421301335, -241.89111928408965, 73.71716802660376, -76.80819533998147, -0.0800000037997961, 1.0400000493973494, -0.06400000303983688, 0.0, 0.0, 0.0, 0.0, 0.0, 1.7151011527189069E9, 0.0, 2024-05-07 11:59:12.718
2.0, 7.807041157502681, -138.80825680540875, 8.88226239476353, 18.74624852789566, -0.09600000455975533, 1.0400000493973494, -0.06400000303983688, 0.0, 0.0, 0.0, 0.0, 0.0, 1.7151011527202568E9, 0.0, 2024-05-07 11:59:12.720
2.0, 132.6710809781216, -35.815151925664395, 185.77953029889613, 44.00927272858098, -0.09600000455975533, 1.0400000493973494, -0.06400000303983688, 0.0, 0.0, 0.0, 0.0, 0.0, 1.7151011527202713E9, 0.0, 2024-05-07 11:59:12.720
3.0, -42.83120424253866, -219.33578265132383, 27.985671368427575, -52.341769829858094, -0.09600000455975533, 1.0400000493973494, -0.06400000303983688, 0.0, 0.0, 0.0, 0.0, 0.0, 1.7151011527209313E9, 0.0, 2024-05-07 11:59:12.720
3.0, -4.011042702477425, -196.38775652321056, 35.95165827404708, -50.24742585467175, -0.09600000455975533, 1.0400000493973494, -0.06400000303983688, 0.0, 0.0, 0.0, 0.0, 0.0, 1.7151011527209415E9, 0.0, 2024-05-07 11:59:12.720
4.0, 91.00859547173604, -75.91435925057158, 181.92369344457984, 62.94812610419467, -0.09600000455975533, 1.0400000493973494, -0.06400000303983688, 0.0, 0.0, 0.0, 0.0, 0.0, 1.7151011527491567E9, 0.0, 2024-05-07 11:59:12.749
4.0, 17.407364343758672, -157.10010748868808, 36.385486668907106, -17.89355133799836, -0.09600000455975533, 1.0400000493973494, -0.06400000303983688, 0.0, 0.0, 0.0, 0.0, 0.0, 1.7151011527491703E9, 0.0, 2024-05-07 11:59:12.749
5.0, -5.002116190735251, -265.42630970524624, 37.81038855202496, -60.84256242914125, -0.09600000455975533, 1.0400000493973494, -0.06400000303983688, 0.0, 0.0, 0.0, 0.0, 0.0, 1.7151011527493646E9, 0.0, 2024-05-07 11:59:12.749
5.0, 43.30243163695559, -114.71582129085436, 23.034043827094138, -44.16260862676427, -0.09600000455975533, 1.0400000493973494, -0.06400000303983688, 0.0, 0.0, 0.0, 0.0, 0.0, 1.7151011527493749E9, 0.0, 2024-05-07 11:59:12.749
6.0, 119.53655233373865, -100.73607525648549, 216.27841443754733, 46.230773302260786, -0.09600000455975533, 1.0400000493973494, -0.06400000303983688, 0.0, 0.0, 0.0, 0.0, 0.0, 1.7151011527502923E9, 0.0, 2024-05-07 11:59:12.750
6.0, -91.63315876433626, -244.23977645626292, 415.4449166278355, -82.89301256788895, -0.09600000455975533, 1.0400000493973494, -0.06400000303983688, 0.0, 0.0, 0.0, 0.0, 0.0, 1.7151011527503037E9, 0.0, 2024-05-07 11:59:12.750
7.0, 64.81433618208393, -147.3427085042931, 648.9717496610247, 21.790527091827244, -0.09600000455975533, 1.0400000493973494, -0.06400000303983688, 0.0, 0.0, 0.0, 0.0, 0.0, 1.715101152779002E9, 0.0, 2024-05-07 11:59:12.779
7.0, 146.87522100983188, -33.455275053624064, 689.0971362856217, 52.6372219263576, -0.09600000455975533, 1.0400000493973494, -0.06400000303983688, 0.0, 0.0, 0.0, 0.0, 0.0, 1.7151011527790246E9, 0.0, 2024-05-07 11:59:12.779
8.0, -67.66413994831964, -222.96348560834303, 500.0713728251867, -66.98721805633977, -0.09600000455975533, 1.0400000493973494, -0.06400000303983688, 0.0, 0.0, 0.0, 0.0, 0.0, 1.715101152808938E9, 0.0, 2024-05-07 11:59:12.808
8.0, 43.98683332884684, -196.83280461793765, 577.4312034086324, -9.736829534638673, -0.09600000455975533, 1.0400000493973494, -0.06400000303983688, 0.0, 0.0, 0.0, 0.0, 0.0, 1.7151011528089576E9, 0.0, 2024-05-07 11:59:12.808
9.0, 126.14869545539841, -63.44927269825712, 671.8000989905559, 47.16948819113895, -0.09600000455975533, 1.0400000493973494, -0.06400000303983688, 0.0, 0.0, 0.0, 0.0, 0.0, 1.7151011528093538E9, 0.0, 2024-05-07 11:59:12.809
9.0, -2.178491724189371, -179.3300728253089, 521.3476636731066, -47.928687882144004, -0.09600000455975533, 1.0400000493973494, -0.06400000303983688, 0.0, 0.0, 0.0, 0.0, 0.0, 1.7151011528093667E9, 0.0, 2024-05-07 11:59:12.809
10.0, -31.832158472854644, -230.21889152238145, 512.1587294819765, -80.29378209868446, -0.09600000455975533, 1.0400000493973494, -0.03200000151991844, 0.0, 0.0, 0.0, 0.0, 0.0, 1.7151011528101134E9, 0.0, 2024-05-07 11:59:12.810
10.0, -18.604132329579443, -132.68978047790006, 587.7084484868683, -29.461061900947243, -0.09600000455975533, 1.0400000493973494, -0.03200000151991844, 0.0, 0.0, 0.0, 0.0, 0.0, 1.7151011528101246E9, 0.0, 2024-05-07 11:59:12.810
11.0, 28.42136971326545, -121.76927260728553, 507.09864484192804, -27.071265829261392, -0.09600000455975533, 1.0240000486373901, -0.03200000151991844, 0.0, 0.0, 0.0, 0.0, 0.0, 1.7151011528107219E9, 0.0, 2024-05-07 11:59:12.810
11.0, -77.47015763213858, -243.3534201667644, 506.1561900530942, -101.21852235076949, -0.09600000455975533, 1.0240000486373901, -0.03200000151991844, 0.0, 0.0, 0.0, 0.0, 0.0, 1.7151011528107324E9, 0.0, 2024-05-07 11:59:12.810
12.0, -15.010088472161442, -156.06415520096198, 482.8304340294562, -38.73601379105821, -0.12800000607967377, 1.0240000486373901, -0.03200000151991844, 0.0, 0.0, 0.0, 0.0, 0.0, 1.7151011528115823E9, 0.0, 2024-05-07 11:59:12.811
12.0, 123.28019218938425, -49.144155367743224, 717.1239465535618, 64.52262398554012, -0.12800000607967377, 1.0240000486373901, -0.03200000151991844, 0.0, 0.0, 0.0, 0.0, 0.0, 1.715101152811595E9, 0.0, 2024-05-07 11:59:12.811
13.0, -47.5958367860876, -214.32057681074366, 485.8784524933435, -62.58535580849275, -0.12800000607967377, 1.0240000486373901, -0.03200000151991844, 0.0, 0.0, 0.0, 0.0, 0.0, 1.7151011528395584E9, 0.0, 2024-05-07 11:59:12.839
13.0, -163.62623291136697, -306.6474870168604, 410.9532967810519, -189.8504114006646, -0.12800000607967377, 1.0240000486373901, -0.03200000151991844, 0.0, 0.0, 0.0, 0.0, 0.0, 1.7151011528395731E9, 0.0, 2024-05-07 11:59:12.839
14.0, -342.76183093898, -527.7672019470483, 177.4545129975304, -399.7504264637828, -0.12800000607967377, 1.0240000486373901, -0.03200000151991844, 0.0, 0.0, 0.0, 0.0, 0.0, 1.7151011528396876E9, 0.0, 2024-05-07 11:59:12.839
14.0, -443.41375844646245, -631.4110494190827, 141.00170812942088, -491.8641623724252, -0.12800000607967377, 1.0240000486373901, -0.03200000151991844, 0.0, 0.0, 0.0, 0.0, 0.0, 1.7151011528396993E9, 0.0, 2024-05-07 11:59:12.839
15.0, -520.9755436275154, -711.6992216678336, 70.216621668078, -526.1852242657915, -0.12800000607967377, 1.0240000486373901, -0.03200000151991844, 0.0, 0.0, 0.0, 0.0, 0.0, 1.715101152840217E9, 0.0, 2024-05-07 11:59:12.840
15.0, -462.7714806171134, -598.8365208050236, 71.00948045868427, -469.9633082319051, -0.12800000607967377, 1.0240000486373901, -0.03200000151991844, 0.0, 0.0, 0.0, 0.0, 0.0, 1.7151011528402288E9, 0.0, 2024-05-07 11:59:12.840
16.0, -502.0628695515916, -596.2896489351988, 68.90017688367516, -473.5274328896776, -0.12800000607967377, 1.0240000486373901, -0.03200000151991844, 0.0, 0.0, 0.0, 0.0, 0.0, 1.715101152869694E9, 0.0, 2024-05-07 11:59:12.869
16.0, -599.326447699219, -704.4924344532192, -48.65609842352569, -570.043031046167, -0.12800000607967377, 1.0240000486373901, -0.03200000151991844, 0.0, 0.0, 0.0, 0.0, 0.0, 1.715101152869722E9, 0.0, 2024-05-07 11:59:12.869
17.0, -534.2746278699487, -694.3161666737869, 52.31746048014611, -585.3055627653375, -0.12800000607967377, 1.0240000486373901, -0.03200000151991844, 0.0, 0.0, 0.0, 0.0, 0.0, 1.7151011528701944E9, 0.0, 2024-05-07 11:59:12.870
17.0, -314.0020002797246, -508.3122423775494, 205.29432826768607, -391.46280816197395, -0.12800000607967377, 1.0240000486373901, -0.03200000151991844, 0.0, 0.0, 0.0, 0.0, 0.0, 1.7151011528702152E9, 0.0, 2024-05-07 11:59:12.870
18.0, -507.9045932823792, -689.8133271271363, 28.397060363553464, -511.04610924515873, -0.12800000607967377, 1.0240000486373901, -0.03200000151991844, 0.0, 0.0, 0.0, 0.0, 0.0, 1.7151011528709216E9, 0.0, 2024-05-07 11:59:12.870
18.0, -403.17243492323905, -684.786901586689, 129.88298556115478, -533.6949433768168, -0.12800000607967377, 1.0240000486373901, -0.03200000151991844, 0.0, 0.0, 0.0, 0.0, 0.0, 1.7151011528709333E9, 0.0, 2024-05-07 11:59:12.870
19.0, -342.43271974287927, -521.9179984163493, 221.8471254715696, -405.36027639731765, -0.12800000607967377, 1.0240000486373901, -0.03200000151991844, 0.0, 0.0, 0.0, 0.0, 0.0, 1.7151011528988E9, 0.0, 2024-05-07 11:59:12.898
19.0, -482.7949049798772, -648.3116573188454, 96.07802986167371, -507.19027239084244, -0.12800000607967377, 1.0240000486373901, -0.03200000151991844, 0.0, 0.0, 0.0, 0.0, 0.0, 1.7151011528988128E9, 0.0, 2024-05-07 11:59:12.898
20.0, -563.3112111259252, -740.8442620225251, -87.45382056385279, -544.5518729481846, -0.12800000607967377, 1.0240000486373901, -0.03200000151991844, 0.0, 0.0, 0.0, 0.0, 0.0, 1.7151011528993683E9, 0.0, 2024-05-07 11:59:12.899
20.0, -512.7589834248647, -599.6331194955856, 93.91636768728495, -489.5716036995873, -0.12800000607967377, 1.0240000486373901, -0.03200000151991844, 0.0, 0.0, 0.0, 0.0, 0.0, 1.7151011528993819E9, 0.0, 2024-05-07 11:59:12.899
21.0, -448.34294658806175, -567.6457551745698, 78.78473246656358, -473.84158448595554, -0.12800000607967377, 1.0240000486373901, -0.03200000151991844, 0.0, 0.0, 0.0, 0.0, 0.0, 1.7151011529001715E9, 0.0, 2024-05-07 11:59:12.900
21.0, -560.5736043583602, -725.6864475021139, 19.211866072379053, -569.4072480536997, -0.12800000607967377, 1.0240000486373901, -0.03200000151991844, 0.0, 0.0, 0.0, 0.0, 0.0, 1.715101152900184E9, 0.0, 2024-05-07 11:59:12.900
22.0, -566.6359821865335, -706.7438542265445, -27.469565174542367, -601.1029001781717, -0.0800000037997961, 1.0240000486373901, -0.03200000151991844, 0.0, 0.0, 0.0, 0.0, 0.0, 1.7151011529289768E9, 0.0, 2024-05-07 11:59:12.928
22.0, -354.88658659532666, -549.6044777883217, 186.87532098591328, -419.4260401306674, -0.0800000037997961, 1.0240000486373901, -0.03200000151991844, 0.0, 0.0, 0.0, 0.0, 0.0, 1.7151011529289892E9, 0.0, 2024-05-07 11:59:12.928
23.0, -581.1542738145217, -718.3076248895377, 52.942023772746325, -554.9487948250026, -0.0800000037997961, 1.0240000486373901, -0.03200000151991844, 0.0, 0.0, 0.0, 0.0, 0.0, 1.7151011529293413E9, 0.0, 2024-05-07 11:59:12.929
23.0, -590.8406146997586, -761.9859164720401, -67.96520189475268, -614.5553203187883, -0.0800000037997961, 1.0240000486373901, -0.03200000151991844, 0.0, 0.0, 0.0, 0.0, 0.0, 1.7151011529293501E9, 0.0, 2024-05-07 11:59:12.929
24.0, -364.34479358326644, -1006.5548041244037, -255.7698880196549, -407.5368981715292, -0.0800000037997961, 1.0240000486373901, -0.03200000151991844, 0.0, 0.0, 0.0, 0.0, 0.0, 1.7151011529305687E9, 0.0, 2024-05-07 11:59:12.930
24.0, -424.3963671717793, -1127.8434995873831, -385.8735276781954, -467.3790373625234, -0.0800000037997961, 1.0240000486373901, -0.03200000151991844, 0.0, 0.0, 0.0, 0.0, 0.0, 1.715101152930582E9, 0.0, 2024-05-07 11:59:12.930
25.0, -445.4407842224464, -1163.181814268697, -382.75445111515, -499.5982754807919, -0.0800000037997961, 1.0240000486373901, -0.03200000151991844, 0.0, 0.0, 0.0, 0.0, 0.0, 1.7151011529588757E9, 0.0, 2024-05-07 11:59:12.958
25.0, -409.0852167531848, -1076.154342299793, -390.690518821124, -444.71524363104254, -0.0800000037997961, 1.0240000486373901, -0.03200000151991844, 0.0, 0.0, 0.0, 0.0, 0.0, 1.7151011529588912E9, 0.0, 2024-05-07 11:59:12.958
26.0, -443.7989681418985, -1088.2828378560953, -331.0727736274712, -498.5062246937305, -0.0800000037997961, 1.0240000486373901, -0.03200000151991844, 0.0, 0.0, 0.0, 0.0, 0.0, 1.7151011529888947E9, 0.0, 2024-05-07 11:59:12.988
26.0, -591.7232310893014, -1235.8144113081507, -545.9113265820779, -561.25052625034, -0.0800000037997961, 1.0240000486373901, -0.03200000151991844, 0.0, 0.0, 0.0, 0.0, 0.0, 1.7151011529889116E9, 0.0, 2024-05-07 11:59:12.988
27.0, -465.35575148649514, -1181.0061774575152, -410.8822386818938, -547.2072019167244, -0.0800000037997961, 1.0240000486373901, -0.03200000151991844, 0.0, 0.0, 0.0, 0.0, 0.0, 1.7151011529893384E9, 0.0, 2024-05-07 11:59:12.989
27.0, -361.6819848148152, -1055.8766047400422, -343.57151927938685, -439.535482192412, -0.0800000037997961, 1.0240000486373901, -0.03200000151991844, 0.0, 0.0, 0.0, 0.0, 0.0, 1.7151011529893491E9, 0.0, 2024-05-07 11:59:12.989
28.0, -547.8990834085271, -1215.4581358493306, -419.8579985755496, -576.0044315755367, -0.0800000037997961, 1.0240000486373901, -0.03200000151991844, 0.0, 0.0, 0.0, 0.0, 0.0, 1.7151011530189595E9, 0.0, 2024-05-07 11:59:13.018
28.0, -488.71890650969, -1128.8420528755523, -403.5071559692733, -526.4208379629999, -0.0800000037997961, 1.0240000486373901, -0.03200000151991844, 0.0, 0.0, 0.0, 0.0, 0.0, 1.715101153018973E9, 0.0, 2024-05-07 11:59:13.018
29.0, -337.76906449813396, -1023.2497175266035, -241.97713698307052, -423.6857861801982, -0.0800000037997961, 1.0240000486373901, -0.03200000151991844, 0.0, 0.0, 0.0, 0.0, 0.0, 1.7151011530193567E9, 0.0, 2024-05-07 11:59:13.019
29.0, -507.7175982845947, -1153.2523798863403, -428.9571751677431, -510.45146515220404, -0.0800000037997961, 1.0240000486373901, -0.03200000151991844, 0.0, 0.0, 0.0, 0.0, 0.0, 1.7151011530193703E9, 0.0, 2024-05-07 11:59:13.019
30.0, -540.5539198955521, -1253.9566659932025, -588.5948047763668, -584.5912418738008, -0.0800000037997961, 1.0240000486373901, -0.04800000227987766, 0.0, 0.0, 0.0, 0.0, 0.0, 1.7151011530200915E9, 0.0, 2024-05-07 11:59:13.020
30.0, -397.9216153854504, -1099.0051310290582, -768.7925343913957, -471.822038509883, -0.0800000037997961, 1.0240000486373901, -0.04800000227987766, 0.0, 0.0, 0.0, 0.0, 0.0, 1.7151011530201025E9, 0.0, 2024-05-07 11:59:13.020
31.0, -376.5406073387712, -1076.4572741962038, -866.3104257360101, -448.78051488287747, -0.0800000037997961, 1.0400000493973494, -0.04800000227987766, 0.0, 0.0, 0.0, 0.0, 0.0, 1.7151011530206673E9, 0.0, 2024-05-07 11:59:13.020
31.0, -539.3721115095541, -1221.0044074836187, -901.8357354151085, -532.2887409934774, -0.0800000037997961, 1.0400000493973494, -0.04800000227987766, 0.0, 0.0, 0.0, 0.0, 0.0, 1.715101153020676E9, 0.0, 2024-05-07 11:59:13.020
32.0, -453.4329504277557, -1125.0123953209259, -910.5422225119546, -525.5045624738559, -0.09600000455975533, 1.0400000493973494, -0.04800000227987766, 0.0, 0.0, 0.0, 0.0, 0.0, 1.7151011530212822E9, 0.0, 2024-05-07 11:59:13.021
32.0, -402.0093260370195, -1046.8260468472727, -781.6316109392792, -437.53089581616223, -0.09600000455975533, 1.0400000493973494, -0.04800000227987766, 0.0, 0.0, 0.0, 0.0, 0.0, 1.715101153021288E9, 0.0, 2024-05-07 11:59:13.021
33.0, -526.8023077584803, -1205.1995902708732, -998.2578360727057, -566.4751664884388, -0.09600000455975533, 1.0400000493973494, -0.04800000227987766, 0.0, 0.0, 0.0, 0.0, 0.0, 1.7151011530221262E9, 0.0, 2024-05-07 11:59:13.022
33.0, -516.4016459817067, -1176.8436688068323, -987.423345901072, -508.93306577019393, -0.09600000455975533, 1.0400000493973494, -0.04800000227987766, 0.0, 0.0, 0.0, 0.0, 0.0, 1.7151011530221322E9, 0.0, 2024-05-07 11:59:13.022
34.0, -338.3749282909557, -1041.7547425073572, -772.0612069526687, -436.7268173256889, -0.09600000455975533, 1.0400000493973494, -0.04800000227987766, 0.0, 0.0, 0.0, 0.0, 0.0, 1.715101153048984E9, 0.0, 2024-05-07 11:59:13.048
34.0, -500.7875636667013, -1174.880221330095, -868.0270398156717, -500.70902576763183, -0.09600000455975533, 1.0400000493973494, -0.04800000227987766, 0.0, 0.0, 0.0, 0.0, 0.0, 1.7151011530490108E9, 0.0, 2024-05-07 11:59:13.049
35.0, -578.6522807441652, -1231.9099557544105, -944.7548273066059, -561.9498875420541, -0.09600000455975533, 1.0400000493973494, -0.04800000227987766, 0.0, 0.0, 0.0, 0.0, 0.0, 1.7151011530788803E9, 0.0, 2024-05-07 11:59:13.078
35.0, -418.3900878429413, -1077.9083553790115, -851.7023765090853, -445.8035545181483, -0.09600000455975533, 1.0400000493973494, -0.04800000227987766, 0.0, 0.0, 0.0, 0.0, 0.0, 1.715101153078895E9, 0.0, 2024-05-07 11:59:13.078
36.0, -456.37999159283936, -1088.5670702527277, -877.7545196004212, -502.938006141223, -0.09600000455975533, 1.0400000493973494, -0.04800000227987766, 0.0, 0.0, 0.0, 0.0, 0.0, 1.715101153079347E9, 0.0, 2024-05-07 11:59:13.079
36.0, -539.686263105832, -1217.5674394243397, -962.9195213913918, -557.1515958989039, -0.09600000455975533, 1.0400000493973494, -0.04800000227987766, 0.0, 0.0, 0.0, 0.0, 0.0, 1.7151011530793583E9, 0.0, 2024-05-07 11:59:13.079
37.0, -554.9936736244708, -1155.185908163432, -882.1115030487999, -540.1238314006478, -0.09600000455975533, 1.0400000493973494, -0.04800000227987766, 0.0, 0.0, 0.0, 0.0, 0.0, 1.7151011530804105E9, 0.0, 2024-05-07 11:59:13.080
37.0, -345.3535816082731, -1040.44203762291, -783.0041542230174, -449.0684871794656, -0.09600000455975533, 1.0400000493973494, -0.04800000227987766, 0.0, 0.0, 0.0, 0.0, 0.0, 1.7151011530804243E9, 0.0, 2024-05-07 11:59:13.080
38.0, -552.4393219547346, -1238.0471315816976, -994.0280092228204, -571.2397990319878, -0.09600000455975533, 1.0400000493973494, -0.04800000227987766, 0.0, 0.0, 0.0, 0.0, 0.0, 1.715101153080776E9, 0.0, 2024-05-07 11:59:13.080
38.0, -611.1482714591548, -1261.5785821028985, -1100.0354734668508, -704.5709723522887, -0.09600000455975533, 1.0400000493973494, -0.04800000227987766, 0.0, 0.0, 0.0, 0.0, 0.0, 1.7151011530807867E9, 0.0, 2024-05-07 11:59:13.080
39.0, -828.2251545372419, -1035.954157676082, -1267.6297402312048, -895.3264395422302, -0.09600000455975533, 1.0400000493973494, -0.04800000227987766, 0.0, 0.0, 0.0, 0.0, 0.0, 1.71510115308213E9, 0.0, 2024-05-07 11:59:13.082
39.0, -1006.4201677259989, -1151.6367431054823, -1451.2550881556235, -1034.4058390944265, -0.09600000455975533, 1.0400000493973494, -0.04800000227987766, 0.0, 0.0, 0.0, 0.0, 0.0, 1.7151011530821605E9, 0.0, 2024-05-07 11:59:13.082
40.0, -911.176135554444, -1208.3598057334311, -1431.9310250845738, -995.2378668584861, -0.09600000455975533, 1.0400000493973494, -0.03200000151991844, 0.0, 0.0, 0.0, 0.0, 0.0, 1.7151011531089308E9, 0.0, 2024-05-07 11:59:13.108
40.0, -841.6551352781244, -1067.1112642069347, -1270.4197055981494, -940.9270397019573, -0.09600000455975533, 1.0400000493973494, -0.03200000151991844, 0.0, 0.0, 0.0, 0.0, 0.0, 1.7151011531089516E9, 0.0, 2024-05-07 11:59:13.108
41.0, -900.4575822814368, -1087.044930970762, -1341.9864311502315, -930.3468627273105, -0.09600000455975533, 1.0240000486373901, -0.03200000151991844, 0.0, 0.0, 0.0, 0.0, 0.0, 1.7151011531093976E9, 0.0, 2024-05-07 11:59:13.109
41.0, -961.0851004631259, -1206.732949252706, -1403.272171724122, -1061.3256389754824, -0.09600000455975533, 1.0240000486373901, -0.03200000151991844, 0.0, 0.0, 0.0, 0.0, 0.0, 1.7151011531094117E9, 0.0, 2024-05-07 11:59:13.109
42.0, -1027.6254004747607, -1215.2075625522994, -1567.345322680194, -1063.7490941467695, -0.09600000455975533, 1.0240000486373901, -0.03200000151991844, 0.0, 0.0, 0.0, 0.0, 0.0, 1.7151011531102753E9, 0.0, 2024-05-07 11:59:13.110
42.0, -842.6013299669139, -1041.044161515776, -1679.158981605433, -909.8035922707058, -0.09600000455975533, 1.0240000486373901, -0.03200000151991844, 0.0, 0.0, 0.0, 0.0, 0.0, 1.715101153110287E9, 0.0, 2024-05-07 11:59:13.110
43.0, -1044.133318879176, -1228.6749422927387, -1504.918912619818, -1058.797466605436, -0.09600000455975533, 1.0240000486373901, -0.03200000151991844, 0.0, 0.0, 0.0, 0.0, 0.0, 1.7151011531391292E9, 0.0, 2024-05-07 11:59:13.139
43.0, -933.4958584900014, -1160.1001367052086, -1321.3160040951334, -1017.4117336957715, -0.09600000455975533, 1.0240000486373901, -0.03200000151991844, 0.0, 0.0, 0.0, 0.0, 0.0, 1.715101153139147E9, 0.0, 2024-05-07 11:59:13.139
44.0, -848.7048466945998, -1030.6173204393126, -1318.6868544262834, -935.9230535612442, -0.09600000455975533, 1.0240000486373901, -0.03200000151991844, 0.0, 0.0, 0.0, 0.0, 0.0, 1.7151011531393528E9, 0.0, 2024-05-07 11:59:13.139
44.0, -1008.2302793045528, -1144.6132109886967, -1443.9959423416294, -1030.684638638515, -0.09600000455975533, 1.0240000486373901, -0.03200000151991844, 0.0, 0.0, 0.0, 0.0, 0.0, 1.7151011531393597E9, 0.0, 2024-05-07 11:59:13.139
45.0, -1007.6019761119969, -1200.5995133253746, -1500.397373573389, -1026.391233489383, -0.09600000455975533, 1.0240000486373901, -0.03200000151991844, 0.0, 0.0, 0.0, 0.0, 0.0, 1.7151011531402388E9, 0.0, 2024-05-07 11:59:13.140
45.0, -895.9697023346089, -1092.2695712088607, -1396.300998206716, -953.9830304472707, -0.09600000455975533, 1.0240000486373901, -0.03200000151991844, 0.0, 0.0, 0.0, 0.0, 0.0, 1.715101153140248E9, 0.0, 2024-05-07 11:59:13.140
46.0, -968.2881477777846, -1082.5869702235796, -1345.5318563082255, -973.759621412959, -0.09600000455975533, 1.0240000486373901, -0.03200000151991844, 0.0, 0.0, 0.0, 0.0, 0.0, 1.7151011531688707E9, 0.0, 2024-05-07 11:59:13.168
46.0, -1002.7101869699545, -1193.104753814172, -1459.0752189629711, -1027.7974358727224, -0.09600000455975533, 1.0240000486373901, -0.03200000151991844, 0.0, 0.0, 0.0, 0.0, 0.0, 1.7151011531688848E9, 0.0, 2024-05-07 11:59:13.168
47.0, -888.3627458247356, -1114.024569251109, -1305.3952499837615, -950.6919184862636, -0.09600000455975533, 1.0240000486373901, -0.03200000151991844, 0.0, 0.0, 0.0, 0.0, 0.0, 1.7151011531694176E9, 0.0, 2024-05-07 11:59:13.169
47.0, -831.8117185947485, -1032.98841701122, -1312.5608982988633, -917.6312028779648, -0.09600000455975533, 1.0240000486373901, -0.03200000151991844, 0.0, 0.0, 0.0, 0.0, 0.0, 1.715101153169428E9, 0.0, 2024-05-07 11:59:13.169
48.0, -1071.281252657529, -1204.862999274861, -1378.5215138173662, -1043.9051849818788, -0.09600000455975533, 1.0240000486373901, -0.03200000151991844, 0.0, 0.0, 0.0, 0.0, 0.0, 1.715101153170349E9, 0.0, 2024-05-07 11:59:13.170
48.0, -973.4566895165481, -1178.8145960834809, -1522.2159499148838, -1027.2626301790588, -0.09600000455975533, 1.0240000486373901, -0.03200000151991844, 0.0, 0.0, 0.0, 0.0, 0.0, 1.715101153170358E9, 0.0, 2024-05-07 11:59:13.170
49.0, -869.1022610529326, -1020.7926032557152, -1277.3011215166189, -902.0732190622948, -0.09600000455975533, 1.0240000486373901, -0.03200000151991844, 0.0, 0.0, 0.0, 0.0, 0.0, 1.7151011531991868E9, 0.0, 2024-05-07 11:59:13.199
49.0, -1043.867785982322, -1155.8478704555891, -1474.6930411779322, -1035.9130187765695, -0.09600000455975533, 1.0240000486373901, -0.03200000151991844, 0.0, 0.0, 0.0, 0.0, 0.0, 1.7151011531992083E9, 0.0, 2024-05-07 11:59:13.199
50.0, -1098.1449540392496, -1257.1281011556275, -1501.75869715726, -1108.2501637195237, -0.09600000455975533, 1.0240000486373901, -0.03200000151991844, 0.0, 0.0, 0.0, 0.0, 0.0, 1.7151011531993008E9, 0.0, 2024-05-07 11:59:13.199
50.0, -950.6806987863965, -1087.2094865688123, -1308.9668544414453, -1000.4924262962304, -0.09600000455975533, 1.0240000486373901, -0.03200000151991844, 0.0, 0.0, 0.0, 0.0, 0.0, 1.7151011531993065E9, 0.0, 2024-05-07 11:59:13.199
51.0, -894.8739116475917, -1087.7405523625202, -1386.91758921789, -953.8820531484671, -0.09600000455975533, 1.0560000501573086, -0.03200000151991844, 0.0, 0.0, 0.0, 0.0, 0.0, 1.7151011532002423E9, 0.0, 2024-05-07 11:59:13.200
51.0, -1002.5493712718599, -1204.754542176146, -1413.0856692078523, -1037.5997136565857, -0.09600000455975533, 1.0560000501573086, -0.03200000151991844, 0.0, 0.0, 0.0, 0.0, 0.0, 1.715101153200252E9, 0.0, 2024-05-07 11:59:13.200
52.0, -1040.2812219248153, -1188.5981743675657, -1522.1037529162131, -1035.6961045791395, -0.11200000531971455, 1.0560000501573086, -0.03200000151991844, 0.0, 0.0, 0.0, 0.0, 0.0, 1.7151011532292528E9, 0.0, 2024-05-07 11:59:13.229
52.0, -828.8684173296206, -1021.2339114504866, -1717.7809284478426, -901.9086634642445, -0.11200000531971455, 1.0560000501573086, -0.03200000151991844, 0.0, 0.0, 0.0, 0.0, 0.0, 1.7151011532292788E9, 0.0, 2024-05-07 11:59:13.229
53.0, -1044.8887786702253, -1180.1833994672634, -1489.106615607161, -1029.0503023578785, -0.11200000531971455, 1.0560000501573086, -0.03200000151991844, 0.0, 0.0, 0.0, 0.0, 0.0, 1.7151011532294614E9, 0.0, 2024-05-07 11:59:13.229
53.0, -957.6743117035367, -1168.8814218011685, -1319.6367890150286, -1044.6195058734156, -0.11200000531971455, 1.0560000501573086, -0.03200000151991844, 0.0, 0.0, 0.0, 0.0, 0.0, 1.7151011532294729E9, 0.0, 2024-05-07 11:59:13.229
54.0, -844.8789290399291, -1028.4706178647466, -1324.674434255343, -936.6111951530911, -0.11200000531971455, 1.0560000501573086, -0.03200000151991844, 0.0, 0.0, 0.0, 0.0, 0.0, 1.71510115323046E9, 0.0, 2024-05-07 11:59:13.230
54.0, -1056.5385670321994, -1167.2994441199116, -1451.718835750129, -1023.4329726244323, -0.11200000531971455, 1.0560000501573086, -0.03200000151991844, 0.0, 0.0, 0.0, 0.0, 0.0, 1.715101153230475E9, 0.0, 2024-05-07 11:59:13.230
55.0, -1140.0467931427993, -1233.2451000385918, -1482.5767502845265, -1136.6547038829885, -0.11200000531971455, 1.0560000501573086, -0.03200000151991844, 0.0, 0.0, 0.0, 0.0, 0.0, 1.7151011532589204E9, 0.0, 2024-05-07 11:59:13.258
55.0, -1378.848755063489, -1065.5779052251019, -1351.9345650323667, -963.51977533428, -0.11200000531971455, 1.0560000501573086, -0.03200000151991844, 0.0, 0.0, 0.0, 0.0, 0.0, 1.7151011532589345E9, 0.0, 2024-05-07 11:59:13.258
56.0, -1358.1970275081694, -1061.7632072702982, -1240.5977433514781, -944.2368511627428, -0.11200000531971455, 1.0560000501573086, -0.03200000151991844, 0.0, 0.0, 0.0, 0.0, 0.0, 1.715101153259336E9, 0.0, 2024-05-07 11:59:13.259
56.0, -1505.8370580589399, -1191.7396903303452, -1477.8981354399584, -1025.8938267952763, -0.11200000531971455, 1.0560000501573086, -0.03200000151991844, 0.0, 0.0, 0.0, 0.0, 0.0, 1.715101153259344E9, 0.0, 2024-05-07 11:59:13.259
57.0, -1373.2987435292453, -1110.8942729881965, -1354.93396479683, -990.3011989169754, -0.11200000531971455, 1.0560000501573086, -0.03200000151991844, 0.0, 0.0, 0.0, 0.0, 0.0, 1.715101153260214E9, 0.0, 2024-05-07 11:59:13.260
57.0, -1299.1589668076485, -1013.9298868370242, -1264.4171661692671, -915.1628689072095, -0.11200000531971455, 1.0560000501573086, -0.03200000151991844, 0.0, 0.0, 0.0, 0.0, 0.0, 1.7151011532602203E9, 0.0, 2024-05-07 11:59:13.260
58.0, -1533.2692242339253, -1193.41890541045, -1498.3254689979367, -1027.8946732715704, -0.11200000531971455, 1.0560000501573086, -0.03200000151991844, 0.0, 0.0, 0.0, 0.0, 0.0, 1.7151011532891915E9, 0.0, 2024-05-07 11:59:13.289
58.0, -1605.9541798727587, -1250.2691246368922, -1556.10318341339, -1154.5389054710977, -0.11200000531971455, 1.0560000501573086, -0.03200000151991844, 0.0, 0.0, 0.0, 0.0, 0.0, 1.7151011532892056E9, 0.0, 2024-05-07 11:59:13.289
59.0, -1370.8042302588, -1040.4981361222453, -1787.5001434218138, -913.3190982290544, -0.11200000531971455, 1.0560000501573086, -0.03200000151991844, 0.0, 0.0, 0.0, 0.0, 0.0, 1.715101153289316E9, 0.0, 2024-05-07 11:59:13.289
59.0, -1502.6693627964705, -1195.4721104861237, -1972.146484034136, -1061.5425531729124, -0.11200000531971455, 1.0560000501573086, -0.03200000151991844, 0.0, 0.0, 0.0, 0.0, 0.0, 1.715101153289324E9, 0.0, 2024-05-07 11:59:13.289
60.0, -1515.6692550424486, -1246.2898710840382, -1908.3400508901104, -1048.9353504222818, -0.11200000531971455, 1.0560000501573086, -0.01600000075995922, 0.0, 0.0, 0.0, 0.0, 0.0, 1.715101153290254E9, 0.0, 2024-05-07 11:59:13.290
60.0, -1443.193733801134, -1090.9830456241034, -1890.0033214073628, -975.6333112907596, -0.11200000531971455, 1.0560000501573086, -0.01600000075995922, 0.0, 0.0, 0.0, 0.0, 0.0, 1.7151011532902637E9, 0.0, 2024-05-07 11:59:13.290
61.0, -1390.7491167224944, -1092.1124954107217, -1850.0499701807275, -950.2693097912706, -0.11200000531971455, 1.008000047877431, -0.01600000075995922, 0.0, 0.0, 0.0, 0.0, 0.0, 1.7151011533188665E9, 0.0, 2024-05-07 11:59:13.318
61.0, -1514.8352573523298, -1214.354865362402, -1937.4028134457767, -1049.4364970163442, -0.11200000531971455, 1.008000047877431, -0.01600000075995922, 0.0, 0.0, 0.0, 0.0, 0.0, 1.715101153318879E9, 0.0, 2024-05-07 11:59:13.318
62.0, -1416.876057812944, -1105.497597352136, -1909.8210512725636, -996.288778746035, -0.09600000455975533, 1.008000047877431, -0.01600000075995922, 0.0, 0.0, 0.0, 0.0, 0.0, 1.7151011533193965E9, 0.0, 2024-05-07 11:59:13.319
62.0, -1335.5257539767772, -1031.0997675335966, -1756.7394662862644, -900.9774283752777, -0.09600000455975533, 1.008000047877431, -0.01600000075995922, 0.0, 0.0, 0.0, 0.0, 0.0, 1.7151011533194072E9, 0.0, 2024-05-07 11:59:13.319
63.0, -1484.4223909126595, -1190.1203136495315, -1889.6293314117938, -1037.053688263055, -0.09600000455975533, 1.008000047877431, -0.01600000075995922, 0.0, 0.0, 0.0, 0.0, 0.0, 1.7151011533202837E9, 0.0, 2024-05-07 11:59:13.320
63.0, -1399.3209674209356, -1124.6271856254898, -1829.7535331211984, -1044.6793442727067, -0.09600000455975533, 1.008000047877431, -0.01600000075995922, 0.0, 0.0, 0.0, 0.0, 0.0, 1.7151011533202956E9, 0.0, 2024-05-07 11:59:13.320
64.0, -1343.607677781023, -1026.3762738895603, -1762.3006975203753, -912.5785980378278, -0.09600000455975533, 1.008000047877431, -0.01600000075995922, 0.0, 0.0, 0.0, 0.0, 0.0, 1.7151011533494372E9, 0.0, 2024-05-07 11:59:13.349
64.0, -1512.939128074795, -1174.0761428396218, -1905.7669997205958, -996.8946425388567, -0.09600000455975533, 1.008000047877431, -0.01600000075995922, 0.0, 0.0, 0.0, 0.0, 0.0, 1.7151011533494737E9, 0.0, 2024-05-07 11:59:13.349
65.0, -1526.3317098161206, -1170.8710485775955, -1958.0246218014508, -1080.0662776534446, -0.09600000455975533, 1.008000047877431, -0.01600000075995922, 0.0, 0.0, 0.0, 0.0, 0.0, 1.7151011533495717E9, 0.0, 2024-05-07 11:59:13.349
65.0, -1389.993656931445, -1075.7840922041796, -1787.5450222212821, -941.0953351999633, -0.09600000455975533, 1.008000047877431, -0.01600000075995922, 0.0, 0.0, 0.0, 0.0, 0.0, 1.7151011533495872E9, 0.0, 2024-05-07 11:59:13.349
66.0, -1445.1384817780927, -1118.7368431952782, -1888.6681771231815, -983.322545599658, -0.09600000455975533, 1.008000047877431, -0.01600000075995922, 0.0, 0.0, 0.0, 0.0, 0.0, 1.715101153350172E9, 0.0, 2024-05-07 11:59:13.350
66.0, -1578.3350186999887, -1224.015026947949, -1975.4899545945227, -1025.3403216018341, -0.09600000455975533, 1.008000047877431, -0.01600000075995922, 0.0, 0.0, 0.0, 0.0, 0.0, 1.715101153350182E9, 0.0, 2024-05-07 11:59:13.350
67.0, -1487.7284624734893, -1150.133303323295, -1976.0509395878762, -998.5701177190058, -0.09600000455975533, 1.008000047877431, -0.01600000075995922, 0.0, 0.0, 0.0, 0.0, 0.0, 1.7151011533791828E9, 0.0, 2024-05-07 11:59:13.379
67.0, -1328.049693965353, -1036.619859868195, -1772.832255795598, -886.3357200487517, -0.09600000455975533, 1.008000047877431, -0.01600000075995922, 0.0, 0.0, 0.0, 0.0, 0.0, 1.7151011533792124E9, 0.0, 2024-05-07 11:59:13.379
68.0, -1501.409016511403, -1205.8465929632075, -1853.9806050341576, -1035.0790210864507, -0.09600000455975533, 1.008000047877431, -0.01600000075995922, 0.0, 0.0, 0.0, 0.0, 0.0, 1.715101153379387E9, 0.0, 2024-05-07 11:59:13.379
68.0, -1516.473333532922, -1190.9842305392958, -2052.116764786653, -1093.7430917914025, -0.09600000455975533, 1.008000047877431, -0.01600000075995922, 0.0, 0.0, 0.0, 0.0, 0.0, 1.7151011533793952E9, 0.0, 2024-05-07 11:59:13.379
69.0, -1348.3311714250594, -1027.3785670776851, -2237.1464451444335, -898.236081707757, -0.09600000455975533, 1.008000047877431, -0.01600000075995922, 0.0, 0.0, 0.0, 0.0, 0.0, 1.71510115338033E9, 0.0, 2024-05-07 11:59:13.380
69.0, -1509.1805286193267, -1160.747139397543, -2399.114032425452, -1000.7579591930844, -0.09600000455975533, 1.008000047877431, -0.01600000075995922, 0.0, 0.0, 0.0, 0.0, 0.0, 1.7151011533803415E9, 0.0, 2024-05-07 11:59:13.380
70.0, -1585.253833618015, -1252.5841227094643, -2462.999003468547, -1072.8931495384313, -0.09600000455975533, 1.008000047877431, -0.04800000227987766, 0.0, 0.0, 0.0, 0.0, 0.0, 1.715101153408959E9, 0.0, 2024-05-07 11:59:13.408
70.0, -1399.3247073208913, -1089.3636689432897, -2296.3154023434035, -973.8605987117626, -0.09600000455975533, 1.008000047877431, -0.04800000227987766, 0.0, 0.0, 0.0, 0.0, 0.0, 1.7151011534089756E9, 0.0, 2024-05-07 11:59:13.408
71.0, -1499.4493089346215, -1115.6963045313023, -2424.5677915238775, -957.5247157053091, -0.09600000455975533, 1.0400000493973494, -0.04800000227987766, 0.0, 0.0, 0.0, 0.0, 0.0, 1.7151011534093883E9, 0.0, 2024-05-07 11:59:13.409
71.0, -1535.7151188049465, -1247.6250153682195, -2444.5986956865527, -1109.1776589085348, -0.09600000455975533, 1.0400000493973494, -0.04800000227987766, 0.0, 0.0, 0.0, 0.0, 0.0, 1.7151011534093971E9, 0.0, 2024-05-07 11:59:13.409
72.0, -1504.954441669397, -1168.1895403093658, -2475.202297023963, -1014.2814374328591, -0.09600000455975533, 1.0400000493973494, -0.04800000227987766, 0.0, 0.0, 0.0, 0.0, 0.0, 1.71510115341028E9, 0.0, 2024-05-07 11:59:13.410
72.0, -1340.8177124140784, -1011.6971665634774, -2267.2750791874714, -922.586570319254, -0.09600000455975533, 1.0400000493973494, -0.04800000227987766, 0.0, 0.0, 0.0, 0.0, 0.0, 1.7151011534102883E9, 0.0, 2024-05-07 11:59:13.410
73.0, -1492.4669157173485, -1193.3927261107601, -2432.159788433928, -1008.1031227060594, -0.09600000455975533, 1.0400000493973494, -0.04800000227987766, 0.0, 0.0, 0.0, 0.0, 0.0, 1.7151011534689229E9, 0.0, 2024-05-07 11:59:13.468
73.0, -1578.1480237022042, -1130.1771971597336, -2551.1895843236707, -1024.4203062127344, -0.09600000455975533, 1.0400000493973494, -0.04800000227987766, 0.0, 0.0, 0.0, 0.0, 0.0, 1.7151011534689364E9, 0.0, 2024-05-07 11:59:13.468
74.0, -1764.3632523459382, -1020.71032545669, -2690.5401266226545, -882.4237846951, -0.09600000455975533, 1.0400000493973494, -0.04800000227987766, 0.0, 0.0, 0.0, 0.0, 0.0, 1.7151011534695072E9, 0.0, 2024-05-07 11:59:13.469
74.0, -1969.1377345197834, -1188.3924798700027, -2892.3488681316376, -1024.655919909943, -0.09600000455975533, 1.0400000493973494, -0.04800000227987766, 0.0, 0.0, 0.0, 0.0, 0.0, 1.7151011534695282E9, 0.0, 2024-05-07 11:59:13.469
75.0, -1925.0443140421994, -1170.4521797825582, -2921.7407418834046, -1003.2786517632194, -0.09600000455975533, 1.0400000493973494, -0.04800000227987766, 0.0, 0.0, 0.0, 0.0, 0.0, 1.7151011534701452E9, 0.0, 2024-05-07 11:59:13.470
75.0, -1887.529377586674, -1099.7979898196645, -2843.677810108289, -962.2369896494783, -0.09600000455975533, 1.0400000493973494, -0.04800000227987766, 0.0, 0.0, 0.0, 0.0, 0.0, 1.7151011534701607E9, 0.0, 2024-05-07 11:59:13.470
76.0, -1993.637819129508, -1140.652656935621, -2905.984543370083, -1002.0968433772214, -0.09600000455975533, 1.0400000493973494, -0.04800000227987766, 0.0, 0.0, 0.0, 0.0, 0.0, 1.715101153470901E9, 0.0, 2024-05-07 11:59:13.470
76.0, -2037.9219745048322, -1252.2176125138067, -2964.6261746753007, -1086.7756581739523, -0.09600000455975533, 1.0400000493973494, -0.04800000227987766, 0.0, 0.0, 0.0, 0.0, 0.0, 1.7151011534709148E9, 0.0, 2024-05-07 11:59:13.470
77.0, -2067.80751505075, -1170.586816180963, -3040.2132926797494, -1054.4180437573232, -0.09600000455975533, 1.0400000493973494, -0.04800000227987766, 0.0, 0.0, 0.0, 0.0, 0.0, 1.7151011535289755E9, 0.0, 2024-05-07 11:59:13.528
77.0, -2301.0220664376393, -1029.2933958549984, -3188.6630115709268, -858.0658162836917, -0.09600000455975533, 1.0400000493973494, -0.04800000227987766, 0.0, 0.0, 0.0, 0.0, 0.0, 1.7151011535289917E9, 0.0, 2024-05-07 11:59:13.528
78.0, -2470.656448627822, -1196.1527722780593, -3404.6459739119746, -1016.9068472017534, -0.09600000455975533, 1.0400000493973494, -0.04800000227987766, 0.0, 0.0, 0.0, 0.0, 0.0, 1.7151011535293975E9, 0.0, 2024-05-07 11:59:13.529
78.0, -2511.492416244, -1205.2930877697654, -3432.3287133839913, -1081.7155735339038, -0.09600000455975533, 1.0400000493973494, -0.04800000227987766, 0.0, 0.0, 0.0, 0.0, 0.0, 1.7151011535294108E9, 0.0, 2024-05-07 11:59:13.529
79.0, -2734.470861452166, -1004.6624147468247, -3196.0941927828826, -871.7089713220485, -0.09600000455975533, 1.0400000493973494, -0.04800000227987766, 0.0, 0.0, 0.0, 0.0, 0.0, 1.7151011535304165E9, 0.0, 2024-05-07 11:59:13.530
79.0, -2940.479510611389, -1145.9633148727007, -3356.50972158229, -978.3372589587234, -0.09600000455975533, 1.0400000493973494, -0.04800000227987766, 0.0, 0.0, 0.0, 0.0, 0.0, 1.715101153530439E9, 0.0, 2024-05-07 11:59:13.530
80.0, -3016.6126540093683, -1209.3396595218219, -3435.1336383507587, -1075.6008371063508, -0.09600000455975533, 1.0400000493973494, -0.01600000075995922, 0.0, 0.0, 0.0, 0.0, 0.0, 1.715101153530822E9, 0.0, 2024-05-07 11:59:13.530
80.0, -2853.631553840358, -1065.155296530109, -3333.1390867591836, -933.7726110867225, -0.09600000455975533, 1.0400000493973494, -0.01600000075995922, 0.0, 0.0, 0.0, 0.0, 0.0, 1.7151011535308387E9, 0.0, 2024-05-07 11:59:13.530
81.0, -2823.297225299757, -1110.34450769471, -3283.3871976486407, -954.667432139162, -0.09600000455975533, 1.0400000493973494, -0.01600000075995922, 0.0, 0.0, 0.0, 0.0, 0.0, 1.71510115353179E9, 0.0, 2024-05-07 11:59:13.531
81.0, -3004.5851357518695, -1208.2812678343616, -3443.1819030554034, -1068.8278782865964, -0.09600000455975533, 1.0400000493973494, -0.01600000075995922, 0.0, 0.0, 0.0, 0.0, 0.0, 1.715101153531808E9, 0.0, 2024-05-07 11:59:13.531
82.0, -2946.4147318410687, -1148.04643914802, -3344.145612328779, -980.1548503371887, -0.11200000531971455, 1.0400000493973494, -0.01600000075995922, 0.0, 0.0, 0.0, 0.0, 0.0, 1.7151011535323539E9, 0.0, 2024-05-07 11:59:13.532
82.0, -2782.3303611851297, -1030.9651311351918, -3244.802649805788, -908.2739731888287, -0.11200000531971455, 1.0400000493973494, -0.01600000075995922, 0.0, 0.0, 0.0, 0.0, 0.0, 1.7151011535323727E9, 0.0, 2024-05-07 11:59:13.532
83.0, -2545.3085916433483, -1204.949016973842, -3461.8140846346505, -1026.0097636939026, -0.11200000531971455, 1.0400000493973494, -0.01600000075995922, 0.0, 0.0, 0.0, 0.0, 0.0, 1.7151011535331204E9, 0.0, 2024-05-07 11:59:13.533
83.0, -2576.6639128718525, -1184.8246153122745, -3384.9142617457546, -1043.217043390032, -0.11200000531971455, 1.0400000493973494, -0.01600000075995922, 0.0, 0.0, 0.0, 0.0, 0.0, 1.7151011535331428E9, 0.0, 2024-05-07 11:59:13.533
85.0, -2570.66137344297, -1214.631617959123, -3390.0416645850055, -1074.2544731223024, -0.11200000531971455, 1.0400000493973494, -0.01600000075995922, 0.0, 0.0, 0.0, 0.0, 0.0, 1.7151011535890644E9, 0.0, 2024-05-07 11:59:13.589
85.0, -2515.01540200226, -1116.4704638221301, -3368.615777738858, -993.936381673906, -0.11200000531971455, 1.0400000493973494, -0.01600000075995922, 0.0, 0.0, 0.0, 0.0, 0.0, 1.7151011535890944E9, 0.0, 2024-05-07 11:59:13.589
86.0, -2577.3894534632564, -1159.4269547131844, -3312.524758203421, -1045.5096020628698, -0.11200000531971455, 1.0400000493973494, -0.01600000075995922, 0.0, 0.0, 0.0, 0.0, 0.0, 1.7151011535894268E9, 0.0, 2024-05-07 11:59:13.589
86.0, -2695.6076910626143, -1266.058982249815, -3538.4820337262936, -1128.7709947763942, -0.11200000531971455, 1.0400000493973494, -0.01600000075995922, 0.0, 0.0, 0.0, 0.0, 0.0, 1.7151011535894406E9, 0.0, 2024-05-07 11:59:13.589
87.0, -2533.9916543774307, -1145.271433380898, -3371.9779477990232, -1057.338905622717, -0.11200000531971455, 1.0400000493973494, -0.01600000075995922, 0.0, 0.0, 0.0, 0.0, 0.0, 1.715101153590274E9, 0.0, 2024-05-07 11:59:13.590
87.0, -2465.532785688527, -1065.323592028115, -3261.2619495107792, -972.106585632544, -0.11200000531971455, 1.0400000493973494, -0.01600000075995922, 0.0, 0.0, 0.0, 0.0, 0.0, 1.7151011535902925E9, 0.0, 2024-05-07 11:59:13.590
88.0, -2679.7430354505777, -1233.5480319350027, -3485.1286209584214, -1094.8800213779323, -0.11200000531971455, 1.0400000493973494, -0.01600000075995922, 0.0, 0.0, 0.0, 0.0, 0.0, 1.7151011535907507E9, 0.0, 2024-05-07 11:59:13.590
88.0, -2695.5216733636335, -1239.9918795586564, -3428.2223032326438, -1092.5949425050057, -0.11200000531971455, 1.0400000493973494, -0.01600000075995922, 0.0, 0.0, 0.0, 0.0, 0.0, 1.715101153590762E9, 0.0, 2024-05-07 11:59:13.590
89.0, -2939.0022501288913, -1057.290286923293, -3313.1568012959324, -960.1314259744249, -0.11200000531971455, 1.0400000493973494, -0.01600000075995922, 0.0, 0.0, 0.0, 0.0, 0.0, 1.7151011535913813E9, 0.0, 2024-05-07 11:59:13.591
89.0, -3175.513523326721, -1225.245454033371, -3406.3700677915476, -1093.6757735922001, -0.11200000531971455, 1.0400000493973494, -0.01600000075995922, 0.0, 0.0, 0.0, 0.0, 0.0, 1.7151011535913908E9, 0.0, 2024-05-07 11:59:13.591
90.0, -3165.393354046624, -1297.668616675306, -3626.8970085787587, -1179.2858234778978, -0.11200000531971455, 1.0400000493973494, 0.01600000075995922, 0.0, 0.0, 0.0, 0.0, 0.0, 1.7151011536188908E9, 0.0, 2024-05-07 11:59:13.618
90.0, -2975.309198898729, -1102.0531494929455, -3750.5586705636233, -990.8023455110379, -0.11200000531971455, 1.0400000493973494, 0.01600000075995922, 0.0, 0.0, 0.0, 0.0, 0.0, 1.7151011536189065E9, 0.0, 2024-05-07 11:59:13.618
91.0, -3064.341257243883, -1169.1469546980225, -3827.884842047468, -1035.8419606774114, -0.11200000531971455, 1.008000047877431, 0.01600000075995922, 0.0, 0.0, 0.0, 0.0, 0.0, 1.7151011536193752E9, 0.0, 2024-05-07 11:59:13.619
91.0, -3182.219163947273, -1283.9469237378798, -3979.822017647326, -1176.3313025129028, -0.11200000531971455, 1.008000047877431, 0.01600000075995922, 0.0, 0.0, 0.0, 0.0, 0.0, 1.715101153619387E9, 0.0, 2024-05-07 11:59:13.619
92.0, -3139.068198258523, -1201.8673394103535, -3855.717177517712, -1061.4378359741531, -0.12800000607967377, 1.008000047877431, 0.01600000075995922, 0.0, 0.0, 0.0, 0.0, 0.0, 1.7151011536201975E9, 0.0, 2024-05-07 11:59:13.620
92.0, -2958.352492499631, -1062.054919466842, -3863.8178008217365, -1002.3474166742526, -0.12800000607967377, 1.008000047877431, 0.01600000075995922, 0.0, 0.0, 0.0, 0.0, 0.0, 1.715101153620212E9, 0.0, 2024-05-07 11:59:13.620
93.0, -3148.0102990525775, -1243.432587517891, -3903.673914649524, -1091.8095635143109, -0.12800000607967377, 1.008000047877431, 0.01600000075995922, 0.0, 0.0, 0.0, 0.0, 0.0, 1.715101153620796E9, 0.0, 2024-05-07 11:59:13.620
93.0, -3167.97388501605, -1213.6368045709096, -3981.0113058332354, -1078.7311333692633, -0.12800000607967377, 1.008000047877431, 0.01600000075995922, 0.0, 0.0, 0.0, 0.0, 0.0, 1.7151011536208043E9, 0.0, 2024-05-07 11:59:13.620
94.0, -2927.5805956642143, -1041.6201061089523, -4201.861747966614, -957.1432459098287, -0.12800000607967377, 1.008000047877431, 0.01600000075995922, 0.0, 0.0, 0.0, 0.0, 0.0, 1.7151011536495051E9, 0.0, 2024-05-07 11:59:13.649
94.0, -3059.2549933041446, -1168.4588131061755, -4341.78262500884, -1030.3517875424586, -0.12800000607967377, 1.008000047877431, 0.01600000075995922, 0.0, 0.0, 0.0, 0.0, 0.0, 1.7151011536495318E9, 0.0, 2024-05-07 11:59:13.649
95.0, -3151.0396180166863, -1223.521360153798, -4467.559200418647, -1086.779398073908, -0.12800000607967377, 1.008000047877431, 0.01600000075995922, 0.0, 0.0, 0.0, 0.0, 0.0, 1.7151011536496315E9, 0.0, 2024-05-07 11:59:13.649
95.0, -2982.5122462133877, -1076.0608448009007, -4229.600585937966, -963.4337576352991, -0.12800000607967377, 1.008000047877431, 0.01600000075995922, 0.0, 0.0, 0.0, 0.0, 0.0, 1.7151011536496522E9, 0.0, 2024-05-07 11:59:13.649
96.0, -3022.7722692363895, -1137.9449693677016, -4376.945164392237, -1059.2612141999416, -0.12800000607967377, 1.008000047877431, 0.01600000075995922, 0.0, 0.0, 0.0, 0.0, 0.0, 1.715101153650394E9, 0.0, 2024-05-07 11:59:13.650
96.0, -3188.0496679781936, -1263.8113023764454, -4456.7396698468365, -1084.8795288964175, -0.12800000607967377, 1.008000047877431, 0.01600000075995922, 0.0, 0.0, 0.0, 0.0, 0.0, 1.7151011536504073E9, 0.0, 2024-05-07 11:59:13.650
97.0, -3144.7678057909943, -1162.7928646733053, -4468.471736007836, -1085.2049001925625, -0.12800000607967377, 1.008000047877431, 0.01600000075995922, 0.0, 0.0, 0.0, 0.0, 0.0, 1.7151011536792684E9, 0.0, 2024-05-07 11:59:13.679
97.0, -2930.5089373295195, -1083.716420010198, -4253.995953348931, -959.8359738779254, -0.12800000607967377, 1.008000047877431, 0.01600000075995922, 0.0, 0.0, 0.0, 0.0, 0.0, 1.7151011536792834E9, 0.0, 2024-05-07 11:59:13.679
98.0, -3169.604481396731, -1247.3819218710996, -4442.7487041126005, -1113.6393595556729, -0.12800000607967377, 1.008000047877431, 0.01600000075995922, 0.0, 0.0, 0.0, 0.0, 0.0, 1.7151011536793928E9, 0.0, 2024-05-07 11:59:13.679
98.0, -3087.891407264862, -1177.8796210945584, -4361.233844678383, -1025.2056852034293, -0.12800000607967377, 1.008000047877431, 0.01600000075995922, 0.0, 0.0, 0.0, 0.0, 0.0, 1.7151011536794057E9, 0.0, 2024-05-07 11:59:13.679
99.0, -2910.2723386692815, -1033.8859930005856, -4217.079400886316, -955.6248465278186, -0.12800000607967377, 1.008000047877431, 0.01600000075995922, 0.0, 0.0, 0.0, 0.0, 0.0, 1.7151011536803076E9, 0.0, 2024-05-07 11:59:13.680
99.0, -3070.8449432668276, -1183.227678031195, -4386.4145910800435, -1052.140444684308, -0.12800000607967377, 1.008000047877431, 0.01600000075995922, 0.0, 0.0, 0.0, 0.0, 0.0, 1.71510115368032E9, 0.0, 2024-05-07 11:59:13.680
100.0, -3043.0200875964947, -1220.82115238579, -4298.6129598203115, -1063.3676243512891, -0.12800000607967377, 1.008000047877431, 0.03200000151991844, 0.0, 0.0, 0.0, 0.0, 0.0, 1.7151011537092922E9, 0.0, 2024-05-07 11:59:13.709
100.0, -2956.2357091247104, -1067.7208678997122, -4290.905026011635, -976.0895790853538, -0.12800000607967377, 1.008000047877431, 0.03200000151991844, 0.0, 0.0, 0.0, 0.0, 0.0, 1.715101153709308E9, 0.0, 2024-05-07 11:59:13.709
0.0, 97.19999984838068, -123.21100404020399, 169.82324713794515, 32.783963011577725, -0.12800000607967377, 1.008000047877431, 0.03200000151991844, 0.0, 0.0, 0.0, 0.0, 0.0, 1.715101153709381E9, 0.0, 2024-05-07 11:59:13.709
1.0, -73.10382443387061, -216.66736403293908, -9.239422840531915, -74.32677171938121, -0.12800000607967377, 1.0240000486373901, 0.03200000151991844, 0.0, 0.0, 0.0, 0.0, 0.0, 1.7151011537101352E9, 0.0, 2024-05-07 11:59:13.710
1.0, 1.3912427835166454, -189.6503267530352, 15.784247762989253, -35.4243323802948, -0.12800000607967377, 1.0240000486373901, 0.03200000151991844, 0.0, 0.0, 0.0, 0.0, 0.0, 1.715101153710148E9, 0.0, 2024-05-07 11:59:13.710
2.0, 115.63022683002055, -44.00366287864745, 180.9531894060783, 35.83946127537638, -0.09600000455975533, 1.0240000486373901, 0.03200000151991844, 0.0, 0.0, 0.0, 0.0, 0.0, 1.7151011537108023E9, 0.0, 2024-05-07 11:59:13.710
2.0, -101.62804139591753, -236.5150130977854, -44.4094420238398, -55.01018844824284, -0.09600000455975533, 1.0240000486373901, 0.03200000151991844, 0.0, 0.0, 0.0, 0.0, 0.0, 1.7151011537108116E9, 0.0, 2024-05-07 11:59:13.710
3.0, -33.07941510807723, -220.2950669899583, -28.31665251450613, -107.48472472652793, -0.09600000455975533, 1.0240000486373901, 0.03200000151991844, 0.0, 0.0, 0.0, 0.0, 0.0, 1.715101153738974E9, 0.0, 2024-05-07 11:59:13.738
3.0, 133.61166581697762, -26.388734087347984, 177.9949285411276, 80.36671014782041, -0.09600000455975533, 1.0240000486373901, 0.03200000151991844, 0.0, 0.0, 0.0, 0.0, 0.0, 1.715101153738994E9, 0.0, 2024-05-07 11:59:13.738
4.0, -44.34399377461523, -174.35413593426347, 25.97547514224425, -57.403724419884384, -0.09600000455975533, 1.0240000486373901, 0.03200000151991844, 0.0, 0.0, 0.0, 0.0, 0.0, 1.715101153739575E9, 0.0, 2024-05-07 11:59:13.739
4.0, -107.33138882834464, -259.21620582882315, -173.2078565978445, -145.8448785720393, -0.09600000455975533, 1.0240000486373901, 0.03200000151991844, 0.0, 0.0, 0.0, 0.0, 0.0, 1.7151011537395916E9, 0.0, 2024-05-07 11:59:13.739
5.0, 119.04475548956543, -68.2531741913408, -297.6324581736699, 34.87456708680838, -0.09600000455975533, 1.0240000486373901, 0.03200000151991844, 0.0, 0.0, 0.0, 0.0, 0.0, 1.7151011537689042E9, 0.0, 2024-05-07 11:59:13.768
5.0, 84.19262780249119, -104.70971895940602, -359.393166041933, 33.5356829026714, -0.09600000455975533, 1.0240000486373901, 0.03200000151991844, 0.0, 0.0, 0.0, 0.0, 0.0, 1.71510115376892E9, 0.0, 2024-05-07 11:59:13.768
6.0, -38.50227004382759, -254.79938398115337, -483.72614006884396, -64.62921113427728, -0.09600000455975533, 1.0240000486373901, 0.03200000151991844, 0.0, 0.0, 0.0, 0.0, 0.0, 1.7151011537693973E9, 0.0, 2024-05-07 11:59:13.769
6.0, -34.23504419438541, -198.77942254487425, -444.37491273507476, -109.31727570481598, -0.09600000455975533, 1.0240000486373901, 0.03200000151991844, 0.0, 0.0, 0.0, 0.0, 0.0, 1.7151011537694104E9, 0.0, 2024-05-07 11:59:13.769
7.0, 159.04672541562468, -37.90388605091721, -309.4767213333398, 79.68978825584054, -0.09600000455975533, 1.0240000486373901, 0.03200000151991844, 0.0, 0.0, 0.0, 0.0, 0.0, 1.7151011537701497E9, 0.0, 2024-05-07 11:59:13.770
7.0, -63.742854844778776, -236.88152329344302, -439.37466649431735, -105.1248478544876, -0.09600000455975533, 1.0240000486373901, 0.03200000151991844, 0.0, 0.0, 0.0, 0.0, 0.0, 1.715101153770162E9, 0.0, 2024-05-07 11:59:13.770
8.0, -151.2565138079226, -226.7426545135677, -607.0306416079402, -124.00386283081025, -0.09600000455975533, 1.0240000486373901, 0.03200000151991844, 0.0, 0.0, 0.0, 0.0, 0.0, 1.7151011537709267E9, 0.0, 2024-05-07 11:59:13.770
8.0, -392.3809536010958, -65.440769424662, -777.0184443439357, 35.192458583042026, -0.09600000455975533, 1.0240000486373901, 0.03200000151991844, 0.0, 0.0, 0.0, 0.0, 0.0, 1.7151011537709367E9, 0.0, 2024-05-07 11:59:13.770
9.0, -533.3639622307383, -210.08514011092484, -986.4678014623933, -58.3237398089841, -0.09600000455975533, 1.0240000486373901, 0.03200000151991844, 0.0, 0.0, 0.0, 0.0, 0.0, 1.7151011537989604E9, 0.0, 2024-05-07 11:59:13.798
9.0, -475.2384371194057, -199.62837983481586, -897.2898870189674, -72.5877182399854, -0.09600000455975533, 1.0240000486373901, 0.03200000151991844, 0.0, 0.0, 0.0, 0.0, 0.0, 1.715101153798977E9, 0.0, 2024-05-07 11:59:13.798
10.0, -367.5667173950933, -53.79098106268793, -811.5825997344218, 50.76914189849049, -0.09600000455975533, 1.0240000486373901, 0.03200000151991844, 0.0, 0.0, 0.0, 0.0, 0.0, 1.7151011537996469E9, 0.0, 2024-05-07 11:59:13.799
10.0, -470.77299657231197, -122.92303174361587, -886.5301948464476, 32.817622111178935, -0.09600000455975533, 1.0240000486373901, 0.03200000151991844, 0.0, 0.0, 0.0, 0.0, 0.0, 1.7151011537996604E9, 0.0, 2024-05-07 11:59:13.799
11.0, -540.5034312461503, -232.9658480398357, -925.226939687971, -78.52293946966529, -0.09600000455975533, 1.0240000486373901, 0.03200000151991844, 0.0, 0.0, 0.0, 0.0, 0.0, 1.7151011538289533E9, 0.0, 2024-05-07 11:59:13.828
11.0, -486.5815536850132, -142.63604441005737, -1045.277728265617, -44.79652166925371, -0.09600000455975533, 1.0240000486373901, 0.03200000151991844, 0.0, 0.0, 0.0, 0.0, 0.0, 1.7151011538289692E9, 0.0, 2024-05-07 11:59:13.828
12.0, -323.6864712149836, -63.832612443715334, -1214.947639505379, 53.59276636503637, -0.11200000531971455, 1.0240000486373901, 0.03200000151991844, 0.0, 0.0, 0.0, 0.0, 0.0, 1.7151011538294003E9, 0.0, 2024-05-07 11:59:13.829
12.0, -542.2574443253689, -236.01012660376728, -1035.7484631785192, -57.81885331496596, -0.11200000531971455, 1.0240000486373901, 0.03200000151991844, 0.0, 0.0, 0.0, 0.0, 0.0, 1.7151011538294117E9, 0.0, 2024-05-07 11:59:13.829
13.0, -494.6148587898351, -234.08781802654266, -836.7222072365694, -66.15883021615446, -0.11200000531971455, 1.0240000486373901, 0.03200000151991844, 0.0, 0.0, 0.0, 0.0, 0.0, 1.7151011538301177E9, 0.0, 2024-05-07 11:59:13.830
13.0, -331.4654631228186, -65.96435541845858, -825.3267320715822, 65.27995372656733, -0.11200000531971455, 1.0240000486373901, 0.03200000151991844, 0.0, 0.0, 0.0, 0.0, 0.0, 1.7151011538301313E9, 0.0, 2024-05-07 11:59:13.830
14.0, -544.5387832983397, -200.4997765244916, -917.4292482803576, -52.63909187633544, -0.11200000531971455, 1.0240000486373901, 0.03200000151991844, 0.0, 0.0, 0.0, 0.0, 0.0, 1.7151011538309925E9, 0.0, 2024-05-07 11:59:13.830
14.0, -575.4378367322497, -219.26285460218787, -1071.5430456544273, -92.15861470811069, -0.11200000531971455, 1.0240000486373901, 0.03200000151991844, 0.0, 0.0, 0.0, 0.0, 0.0, 1.7151011538310053E9, 0.0, 2024-05-07 11:59:13.831
15.0, -366.5195454075001, -51.266548592597246, -1260.6342573640868, 45.58190065994859, -0.11200000531971455, 1.0240000486373901, 0.03200000151991844, 0.0, 0.0, 0.0, 0.0, 0.0, 1.7151011538590875E9, 0.0, 2024-05-07 11:59:13.859
15.0, -478.9147587758489, -163.0446784682572, -1373.7774507235736, 0.886356289498508, -0.11200000531971455, 1.0240000486373901, 0.03200000151991844, 0.0, 0.0, 0.0, 0.0, 0.0, 1.7151011538591075E9, 0.0, 2024-05-07 11:59:13.859
16.0, -542.7286717197858, -218.55601351056248, -1419.4154498828575, -52.556814077310264, -0.11200000531971455, 1.0240000486373901, 0.03200000151991844, 0.0, 0.0, 0.0, 0.0, 0.0, 1.7151011538598838E9, 0.0, 2024-05-07 11:59:13.859
16.0, -563.6459321719594, -189.29129635728896, -1416.128077821806, -0.39268949534744024, -0.11200000531971455, 1.0240000486373901, 0.03200000151991844, 0.0, 0.0, 0.0, 0.0, 0.0, 1.715101153859907E9, 0.0, 2024-05-07 11:59:13.859
17.0, -336.89953775843605, -76.00972669944167, -1301.0737955849618, 39.41480563301593, -0.11200000531971455, 1.0240000486373901, 0.03200000151991844, 0.0, 0.0, 0.0, 0.0, 0.0, 1.7151011538892305E9, 0.0, 2024-05-07 11:59:13.889
17.0, -546.8051626714878, -243.4151285160333, -1438.0962501615286, -55.06628694757819, -0.11200000531971455, 1.0240000486373901, 0.03200000151991844, 0.0, 0.0, 0.0, 0.0, 0.0, 1.71510115388926E9, 0.0, 2024-05-07 11:59:13.889
18.0, -429.151649965439, -184.48178501427174, -1486.3110403902829, -70.56069246400148, -0.11200000531971455, 1.0240000486373901, 0.03200000151991844, 0.0, 0.0, 0.0, 0.0, 0.0, 1.7151011538894725E9, 0.0, 2024-05-07 11:59:13.889
18.0, -325.5003226934932, -43.60723348334432, -1711.8400973682292, 81.57095793355256, -0.11200000531971455, 1.0240000486373901, 0.03200000151991844, 0.0, 0.0, 0.0, 0.0, 0.0, 1.7151011538894846E9, 0.0, 2024-05-07 11:59:13.889
19.0, -96.79983055312186, -206.27792195603251, -1482.79927433189, -70.57191216386855, -0.11200000531971455, 1.0240000486373901, 0.03200000151991844, 0.0, 0.0, 0.0, 0.0, 0.0, 1.7151011538901262E9, 0.0, 2024-05-07 11:59:13.890
19.0, -180.87652145698667, -244.2304267063737, -1498.1852227495983, -116.11267392430454, -0.11200000531971455, 1.0240000486373901, 0.03200000151991844, 0.0, 0.0, 0.0, 0.0, 0.0, 1.715101153890138E9, 0.0, 2024-05-07 11:59:13.890
20.0, -387.07403556397185, -56.554767129942775, -1309.4586512856185, 43.43519808538258, -0.11200000531971455, 1.0240000486373901, 0.01600000075995922, 0.0, 0.0, 0.0, 0.0, 0.0, 1.7151011538914177E9, 0.0, 2024-05-07 11:59:13.891
20.0, -448.76742523303255, -123.92906483169645, -1440.7291397303343, 2.576791069470346, -0.11200000531971455, 1.0240000486373901, 0.01600000075995922, 0.0, 0.0, 0.0, 0.0, 0.0, 1.7151011538914344E9, 0.0, 2024-05-07 11:59:13.891
21.0, -546.741584372241, -236.3766367994249, -1430.0405056569725, -53.58902646508068, -0.11200000531971455, 1.0240000486373901, 0.01600000075995922, 0.0, 0.0, 0.0, 0.0, 0.0, 1.715101153919005E9, 0.0, 2024-05-07 11:59:13.919
21.0, -408.9935892042704, -150.99846071098, -1472.3537337556481, -78.54163896944374, -0.11200000531971455, 1.0240000486373901, 0.01600000075995922, 0.0, 0.0, 0.0, 0.0, 0.0, 1.715101153919021E9, 0.0, 2024-05-07 11:59:13.919
22.0, -273.4783143098466, -46.16158515308052, -1697.961328632664, 82.04218532796949, -0.11200000531971455, 1.0240000486373901, 0.01600000075995922, 0.0, 0.0, 0.0, 0.0, 0.0, 1.7151011539196723E9, 0.0, 2024-05-07 11:59:13.919
22.0, -66.27476711478084, -226.0732124214992, -1468.531556000933, -64.01212764158845, -0.11200000531971455, 1.0240000486373901, 0.01600000075995922, 0.0, 0.0, 0.0, 0.0, 0.0, 1.715101153919686E9, 0.0, 2024-05-07 11:59:13.919
23.0, -27.043216579593718, -266.62494764104486, -1575.1336643379182, -127.21269699279219, -0.11200000531971455, 1.0240000486373901, 0.01600000075995922, 0.0, 0.0, 0.0, 0.0, 0.0, 1.7151011539491856E9, 0.0, 2024-05-07 11:59:13.949
23.0, 156.79156574234366, -45.50710266083479, -1699.0982582191937, 69.65937657468021, -0.11200000531971455, 1.0240000486373901, 0.01600000075995922, 0.0, 0.0, 0.0, 0.0, 0.0, 1.7151011539492092E9, 0.0, 2024-05-07 11:59:13.949
24.0, -77.7039013793692, -242.76438592374325, -1492.1752035208046, -77.12047698628157, -0.11200000531971455, 1.0240000486373901, 0.01600000075995922, 0.0, 0.0, 0.0, 0.0, 0.0, 1.715101153949405E9, 0.0, 2024-05-07 11:59:13.949
24.0, -91.76218531280756, -252.8247168045491, -1459.7353113051504, -75.4824008056894, -0.11200000531971455, 1.0240000486373901, 0.01600000075995922, 0.0, 0.0, 0.0, 0.0, 0.0, 1.7151011539494195E9, 0.0, 2024-05-07 11:59:13.949
25.0, 75.32906490750611, -98.31822993513197, -1370.3554422641173, 42.840553992427886, -0.11200000531971455, 1.0240000486373901, 0.01600000075995922, 0.0, 0.0, 0.0, 0.0, 0.0, 1.7151011539511583E9, 0.0, 2024-05-07 11:59:13.951
25.0, -8.777545196004212, -177.9406999917701, -1405.2113098511472, -58.26016150973737, -0.11200000531971455, 1.0240000486373901, 0.01600000075995922, 0.0, 0.0, 0.0, 0.0, 0.0, 1.7151011539511795E9, 0.0, 2024-05-07 11:59:13.951
26.0, -25.674413195811212, -229.97018817532808, -1443.7061000950634, -57.05591372400522, -0.11200000531971455, 1.0240000486373901, 0.01600000075995922, 0.0, 0.0, 0.0, 0.0, 0.0, 1.7151011539516537E9, 0.0, 2024-05-07 11:59:13.951
26.0, 44.519769072532654, -146.05431296955794, -1316.5644612014294, 17.487772192806005, -0.11200000531971455, 1.0240000486373901, 0.01600000075995922, 0.0, 0.0, 0.0, 0.0, 0.0, 1.7151011539516635E9, 0.0, 2024-05-07 11:59:13.951
27.0, 138.02100786473602, -56.2106963340193, -1288.3431761357933, 87.61463626194745, -0.11200000531971455, 1.0240000486373901, 0.01600000075995922, 0.0, 0.0, 0.0, 0.0, 0.0, 1.7151011539795752E9, 0.0, 2024-05-07 11:59:13.979
27.0, -48.9852096196264, -214.2102497620508, -1415.4025372304022, -69.4424623772502, -0.11200000531971455, 1.0240000486373901, 0.01600000075995922, 0.0, 0.0, 0.0, 0.0, 0.0, 1.7151011539795902E9, 0.0, 2024-05-07 11:59:13.979
28.0, -52.73632927518338, -196.11661377642304, -1474.706130827777, -130.7693418506533, -0.11200000531971455, 1.0240000486373901, 0.01600000075995922, 0.0, 0.0, 0.0, 0.0, 0.0, 1.7151011540093524E9, 0.0, 2024-05-07 11:59:14.009
28.0, 142.72206210903823, -25.599615196697414, -1296.8439687350765, 73.64984982740134, -0.11200000531971455, 1.0240000486373901, 0.01600000075995922, 0.0, 0.0, 0.0, 0.0, 0.0, 1.715101154009385E9, 0.0, 2024-05-07 11:59:14.009
29.0, -56.562246929854155, -213.70162336807698, -1443.7547187944874, -38.083401248790324, -0.11200000531971455, 1.0240000486373901, 0.01600000075995922, 0.0, 0.0, 0.0, 0.0, 0.0, 1.7151011540094397E9, 0.0, 2024-05-07 11:59:14.009
29.0, -5.022685640491545, -260.81688300985843, -1562.2945877900347, -80.71452084369957, -0.11200000531971455, 1.0240000486373901, 0.01600000075995922, 0.0, 0.0, 0.0, 0.0, 0.0, 1.7151011540094469E9, 0.0, 2024-05-07 11:59:14.009
30.0, 78.57903796900064, -59.737421992234886, -1749.3438141238876, 26.699145783670247, -0.11200000531971455, 1.0240000486373901, -0.0, 0.0, 0.0, 0.0, 0.0, 0.0, 1.7151011540104375E9, 0.0, 2024-05-07 11:59:14.010
30.0, 48.40178522653878, -129.34817986749113, -1899.0744487498887, 1.7053943797945976, -0.11200000531971455, 1.0240000486373901, -0.0, 0.0, 0.0, 0.0, 0.0, 0.0, 1.7151011540104616E9, 0.0, 2024-05-07 11:59:14.010
31.0, -24.657160407863557, -214.67399735655636, -1887.3685618885793, -71.00200065877289, -0.11200000531971455, 1.0240000486373901, -0.0, 0.0, 0.0, 0.0, 0.0, 0.0, 1.7151011540109632E9, 0.0, 2024-05-07 11:59:14.010
31.0, 102.93326648045331, -116.76715641655028, -1748.9099857290275, 3.4070488596335053, -0.11200000531971455, 1.0240000486373901, -0.0, 0.0, 0.0, 0.0, 0.0, 0.0, 1.7151011540109832E9, 0.0, 2024-05-07 11:59:14.010
32.0, 137.15709097497165, -64.2888802383095, -1780.6318171531893, 93.94254698697478, -0.12800000607967377, 1.0240000486373901, -0.0, 0.0, 0.0, 0.0, 0.0, 0.0, 1.7151011540121713E9, 0.0, 2024-05-07 11:59:14.012
32.0, -85.71476708445698, -242.94764102157205, -1885.1582810147665, -50.2455559046939, -0.12800000607967377, 1.0240000486373901, -0.0, 0.0, 0.0, 0.0, 0.0, 0.0, 1.7151011540121937E9, 0.0, 2024-05-07 11:59:14.012
33.0, -84.91442849393934, -250.84630972798914, -2010.328992631752, -70.89354356005788, -0.12800000607967377, 1.0240000486373901, -0.0, 0.0, 0.0, 0.0, 0.0, 0.0, 1.715101154038992E9, 0.0, 2024-05-07 11:59:14.038
33.0, 157.34881083574146, -36.95769136212766, -2215.901943446137, 72.08657164592296, -0.12800000607967377, 1.0240000486373901, -0.0, 0.0, 0.0, 0.0, 0.0, 0.0, 1.715101154039009E9, 0.0, 2024-05-07 11:59:14.039
34.0, -58.40601760800928, -218.38397811260074, -2014.4802815825678, -64.15798373986036, -0.12800000607967377, 1.0240000486373901, -0.0, 0.0, 0.0, 0.0, 0.0, 0.0, 1.715101154039645E9, 0.0, 2024-05-07 11:59:14.039
34.0, -31.994844120927155, -221.3684182772413, -1979.1943255006336, -40.33856092207134, -0.12800000607967377, 1.0240000486373901, -0.0, 0.0, 0.0, 0.0, 0.0, 0.0, 1.7151011540396593E9, 0.0, 2024-05-07 11:59:14.039
35.0, 68.60846468713135, -80.20963434968144, -1781.9183427379467, 7.2628857139497995, -0.12800000607967377, 1.0240000486373901, -0.0, 0.0, 0.0, 0.0, 0.0, 0.0, 1.7151011540689287E9, 0.0, 2024-05-07 11:59:14.068
35.0, -44.100900277495384, -172.12889546062797, -1976.3931404338218, -6.585963821969926, -0.12800000607967377, 1.0240000486373901, -0.0, 0.0, 0.0, 0.0, 0.0, 0.0, 1.7151011540689416E9, 0.0, 2024-05-07 11:59:14.068
36.0, -49.8753058090806, -233.35105773527175, -1926.8132867212407, -70.35125806648284, -0.12800000607967377, 1.0240000486373901, -0.0, 0.0, 0.0, 0.0, 0.0, 0.0, 1.7151011540992568E9, 0.0, 2024-05-07 11:59:14.099
36.0, 16.825809900648892, -117.85920720361173, -1871.8217977727763, -6.069857628084719, -0.12800000607967377, 1.0240000486373901, -0.0, 0.0, 0.0, 0.0, 0.0, 0.0, 1.7151011540992775E9, 0.0, 2024-05-07 11:59:14.099
37.0, 164.08437065593898, -54.946610148996115, -1800.7225597151555, 27.454605574719608, -0.12800000607967377, 1.0240000486373901, -0.0, 0.0, 0.0, 0.0, 0.0, 0.0, 1.71510115409953E9, 0.0, 2024-05-07 11:59:14.099
37.0, -45.9858098551631, -225.04847983364016, -1886.3026904012077, -53.761061863042414, -0.12800000607967377, 1.0240000486373901, -0.0, 0.0, 0.0, 0.0, 0.0, 0.0, 1.71510115409954E9, 0.0, 2024-05-07 11:59:14.099
38.0, 86.88161587063223, -199.14219284057617, -1914.4641370675527, -50.57092720083892, -0.12800000607967377, 1.0240000486373901, -0.0, 0.0, 0.0, 0.0, 0.0, 0.0, 1.715101154100476E9, 0.0, 2024-05-07 11:59:14.100
38.0, 144.12826449237764, -28.13526736665517, -1749.0072231278755, 72.23242774419487, -0.12800000607967377, 1.0240000486373901, -0.0, 0.0, 0.0, 0.0, 0.0, 0.0, 1.715101154100497E9, 0.0, 2024-05-07 11:59:14.100
39.0, -61.04264707677066, -209.55781421717256, -1955.3375036832877, -73.80318572558463, -0.12800000607967377, 1.0240000486373901, -0.0, 0.0, 0.0, 0.0, 0.0, 0.0, 1.7151011541007712E9, 0.0, 2024-05-07 11:59:14.100
39.0, -26.18303958978504, -234.54782572109252, -1933.2571343448944, -107.21171202976257, -0.12800000607967377, 1.0240000486373901, -0.0, 0.0, 0.0, 0.0, 0.0, 0.0, 1.7151011541007817E9, 0.0, 2024-05-07 11:59:14.100
40.0, 67.8866639956832, -83.85977670643479, -1826.3371345116757, 40.36474022176117, -0.12800000607967377, 1.0240000486373901, 0.01600000075995922, 0.0, 0.0, 0.0, 0.0, 0.0, 1.7151011541013715E9, 0.0, 2024-05-07 11:59:14.101
40.0, -95.34500947035849, -200.78774882107973, -1979.429939197842, -75.68061550334096, -0.12800000607967377, 1.0240000486373901, 0.01600000075995922, 0.0, 0.0, 0.0, 0.0, 0.0, 1.715101154101382E9, 0.0, 2024-05-07 11:59:14.101
41.0, -114.37362044490874, -265.43565945513546, -2025.8907163473777, -109.17141960654408, -0.12800000607967377, 1.0240000486373901, 0.01600000075995922, 0.0, 0.0, 0.0, 0.0, 0.0, 1.7151011541022103E9, 0.0, 2024-05-07 11:59:14.102
41.0, -16.679953802376986, -120.82868776842952, -1911.2104241061024, -32.63062711339444, -0.12800000607967377, 1.0240000486373901, 0.01600000075995922, 0.0, 0.0, 0.0, 0.0, 0.0, 1.7151011541022193E9, 0.0, 2024-05-07 11:59:14.102
42.0, 96.76991135347635, -93.80791058856994, -1802.0352645996027, 61.368018372915685, -0.11200000531971455, 1.0240000486373901, 0.01600000075995922, 0.0, 0.0, 0.0, 0.0, 0.0, 1.7151011541289413E9, 0.0, 2024-05-07 11:59:14.128
42.0, -13.482339340262115, -224.63335093855858, -1913.6376191773452, -72.79341273754835, -0.11200000531971455, 1.0240000486373901, 0.01600000075995922, 0.0, 0.0, 0.0, 0.0, 0.0, 1.7151011541289551E9, 0.0, 2024-05-07 11:59:14.128
43.0, -103.71116567123681, -191.2771832337603, -2030.2701391954906, -96.91950735170394, -0.11200000531971455, 1.0240000486373901, 0.01600000075995922, 0.0, 0.0, 0.0, 0.0, 0.0, 1.7151011541296484E9, 0.0, 2024-05-07 11:59:14.129
43.0, -234.15326627576724, -17.042724098078907, -2207.4048907468095, 85.35947658866644, -0.11200000531971455, 1.0240000486373901, 0.01600000075995922, 0.0, 0.0, 0.0, 0.0, 0.0, 1.71510115412966E9, 0.0, 2024-05-07 11:59:14.129
44.0, -20.614328555762768, -210.33945330791175, -2394.8262371262535, -47.35087333898991, -0.11200000531971455, 1.0240000486373901, 0.01600000075995922, 0.0, 0.0, 0.0, 0.0, 0.0, 1.7151011541590285E9, 0.0, 2024-05-07 11:59:14.159
44.0, -24.51130430959165, -257.047063854523, -2407.4932782761753, -131.07227374706417, -0.11200000531971455, 1.0240000486373901, 0.01600000075995922, 0.0, 0.0, 0.0, 0.0, 0.0, 1.715101154159045E9, 0.0, 2024-05-07 11:59:14.159
45.0, 119.5384222837165, -68.42894948925823, -2242.0288845365867, 67.62861089874059, -0.11200000531971455, 1.0240000486373901, 0.01600000075995922, 0.0, 0.0, 0.0, 0.0, 0.0, 1.7151011541596267E9, 0.0, 2024-05-07 11:59:14.159
45.0, 37.04370906110853, -132.51587512996048, -2345.8223280068487, 26.437352786771953, -0.11200000531971455, 1.0240000486373901, 0.01600000075995922, 0.0, 0.0, 0.0, 0.0, 0.0, 1.7151011541596508E9, 0.0, 2024-05-07 11:59:14.159
46.0, -57.45982291921973, -211.52500159386545, -2418.436225546524, -50.208156905137, -0.11200000531971455, 1.0240000486373901, 0.01600000075995922, 0.0, 0.0, 0.0, 0.0, 0.0, 1.715101154160331E9, 0.0, 2024-05-07 11:59:14.160
46.0, -1.974667176604271, -113.15067315939814, -2329.2321318034083, 5.478953435085714, -0.11200000531971455, 1.0240000486373901, 0.01600000075995922, 0.0, 0.0, 0.0, 0.0, 0.0, 1.715101154160346E9, 0.0, 2024-05-07 11:59:14.160
47.0, 118.47255079634488, -57.88991141412407, -2340.534109469503, 47.15639854129404, -0.11200000531971455, 1.0240000486373901, 0.01600000075995922, 0.0, 0.0, 0.0, 0.0, 0.0, 1.715101154161028E9, 0.0, 2024-05-07 11:59:14.161
47.0, -77.30373208411038, -245.57679069042206, -2417.1983186611906, -74.50254701729864, -0.11200000531971455, 1.0240000486373901, 0.01600000075995922, 0.0, 0.0, 0.0, 0.0, 0.0, 1.7151011541610467E9, 0.0, 2024-05-07 11:59:14.161
48.0, -167.67841451335698, -227.0007076105103, -2455.764167004265, -58.34991910867393, -0.11200000531971455, 1.0240000486373901, 0.01600000075995922, 0.0, 0.0, 0.0, 0.0, 0.0, 1.715101154189312E9, 0.0, 2024-05-07 11:59:14.189
48.0, -312.0105035533197, -53.712443163618445, -2278.3844520058483, 58.974482401274145, -0.11200000531971455, 1.0240000486373901, 0.01600000075995922, 0.0, 0.0, 0.0, 0.0, 0.0, 1.7151011541893277E9, 0.0, 2024-05-07 11:59:14.189
49.0, -492.2998607172631, -208.7612155266106, -2365.8569720694795, -26.50467098597437, -0.11200000531971455, 1.0240000486373901, 0.01600000075995922, 0.0, 0.0, 0.0, 0.0, 0.0, 1.7151011541895983E9, 0.0, 2024-05-07 11:59:14.189
49.0, -555.9005993637256, -275.8438010318205, -2508.2536628823727, -98.81937652919441, -0.11200000531971455, 1.0240000486373901, 0.01600000075995922, 0.0, 0.0, 0.0, 0.0, 0.0, 1.7151011541896083E9, 0.0, 2024-05-07 11:59:14.189
50.0, -343.13395098457113, -44.418791773729026, -2707.7866752683185, 68.1409771926701, -0.11200000531971455, 1.0240000486373901, 0.01600000075995922, 0.0, 0.0, 0.0, 0.0, 0.0, 1.7151011542190156E9, 0.0, 2024-05-07 11:59:14.219
50.0, -445.03126517729834, -154.1848554732278, -2848.4368328019045, -47.05168134253472, -0.11200000531971455, 1.0240000486373901, 0.01600000075995922, 0.0, 0.0, 0.0, 0.0, 0.0, 1.7151011542190375E9, 0.0, 2024-05-07 11:59:14.219
51.0, -448.87588233174756, -233.6689492315054, -2910.2125002699904, -71.99307414703071, -0.11200000531971455, 1.0400000493973494, 0.01600000075995922, 0.0, 0.0, 0.0, 0.0, 0.0, 1.7151011542193968E9, 0.0, 2024-05-07 11:59:14.219
51.0, -419.49896817980334, -139.52444764692336, -2732.238141178619, -84.19262780249119, -0.11200000531971455, 1.0400000493973494, 0.01600000075995922, 0.0, 0.0, 0.0, 0.0, 0.0, 1.7151011542194085E9, 0.0, 2024-05-07 11:59:14.219
52.0, -348.7849398176186, -104.11881476640701, -2824.924081780482, 60.30588678549975, -0.11200000531971455, 1.0400000493973494, 0.01600000075995922, 0.0, 0.0, 0.0, 0.0, 0.0, 1.715101154220142E9, 0.0, 2024-05-07 11:59:14.220
52.0, -564.5734273609705, -268.88010731432587, -2966.1352243074216, -126.52081550098956, -0.11200000531971455, 1.0400000493973494, 0.01600000075995922, 0.0, 0.0, 0.0, 0.0, 0.0, 1.7151011542201557E9, 0.0, 2024-05-07 11:59:14.220
53.0, -547.9458321579732, -239.4433547630906, -2852.195432257373, -62.553566658869386, -0.11200000531971455, 1.0400000493973494, 0.01600000075995922, 0.0, 0.0, 0.0, 0.0, 0.0, 1.7151011542211556E9, 0.0, 2024-05-07 11:59:14.221
53.0, -347.01970703853294, -26.414913387037814, -2796.414824418258, 88.51595215126872, -0.11200000531971455, 1.0400000493973494, 0.01600000075995922, 0.0, 0.0, 0.0, 0.0, 0.0, 1.71510115422117E9, 0.0, 2024-05-07 11:59:14.221
54.0, -551.6333735142834, -203.244863091968, -2897.710014718119, -71.7013619504869, -0.11200000531971455, 1.0400000493973494, 0.01600000075995922, 0.0, 0.0, 0.0, 0.0, 0.0, 1.7151011542492635E9, 0.0, 2024-05-07 11:59:14.249
54.0, -468.6412535975687, -177.70134639460593, -2909.6103763771243, 25.498637897893786, -0.11200000531971455, 1.0400000493973494, 0.01600000075995922, 0.0, 0.0, 0.0, 0.0, 0.0, 1.7151011542492833E9, 0.0, 2024-05-07 11:59:14.249
55.0, -351.481407685671, -36.99883026164025, -2719.0662135346793, 63.436183048412204, -0.11200000531971455, 1.0400000493973494, 0.01600000075995922, 0.0, 0.0, 0.0, 0.0, 0.0, 1.715101154249832E9, 0.0, 2024-05-07 11:59:14.249
55.0, -437.1587757705711, -138.8101267553866, -2946.44839094067, 7.218006914481521, -0.11200000531971455, 1.0400000493973494, 0.01600000075995922, 0.0, 0.0, 0.0, 0.0, 0.0, 1.715101154249846E9, 0.0, 2024-05-07 11:59:14.249
56.0, -563.4028386748396, -250.90614812728018, -2994.9586332659237, -135.97528258897364, -0.11200000531971455, 1.0400000493973494, 0.01600000075995922, 0.0, 0.0, 0.0, 0.0, 0.0, 1.7151011542793555E9, 0.0, 2024-05-07 11:59:14.279
56.0, -541.4309264351614, -143.84029219578952, -2939.3762401244603, -41.93549820315093, -0.11200000531971455, 1.0400000493973494, 0.01600000075995922, 0.0, 0.0, 0.0, 0.0, 0.0, 1.7151011542793837E9, 0.0, 2024-05-07 11:59:14.279
57.0, -396.5359824518673, -106.26551734097302, -2848.27601710381, 27.996891068294644, -0.11200000531971455, 1.0400000493973494, 0.01600000075995922, 0.0, 0.0, 0.0, 0.0, 0.0, 1.7151011543089564E9, 0.0, 2024-05-07 11:59:14.308
57.0, -587.5326731889509, -232.4834009455517, -2949.4702301048674, -103.27733727637678, -0.11200000531971455, 1.0400000493973494, 0.01600000075995922, 0.0, 0.0, 0.0, 0.0, 0.0, 1.7151011543089728E9, 0.0, 2024-05-07 11:59:14.308
58.0, -575.639791329857, -204.23593658022583, -3070.620549269486, -128.51418217737228, -0.11200000531971455, 1.0400000493973494, 0.01600000075995922, 0.0, 0.0, 0.0, 0.0, 0.0, 1.7151011543094292E9, 0.0, 2024-05-07 11:59:14.309
58.0, -796.3294177651405, -29.530250050127506, -3162.5192409306765, 47.01802224293351, -0.11200000531971455, 1.0400000493973494, 0.01600000075995922, 0.0, 0.0, 0.0, 0.0, 0.0, 1.7151011543094423E9, 0.0, 2024-05-07 11:59:14.309
59.0, -1002.3156275246292, -203.44681768957525, -3397.052107051946, -42.825594392605126, -0.11200000531971455, 1.0400000493973494, 0.01600000075995922, 0.0, 0.0, 0.0, 0.0, 0.0, 1.7151011543101082E9, 0.0, 2024-05-07 11:59:14.310
59.0, -966.0385979544371, -277.380899913609, -3403.3463586773723, -82.01600602827966, -0.11200000531971455, 1.0400000493973494, 0.01600000075995922, 0.0, 0.0, 0.0, 0.0, 0.0, 1.71510115431012E9, 0.0, 2024-05-07 11:59:14.310
60.0, -872.4027227638289, -38.823901440016925, -3228.2629422517493, 66.81705260835588, -0.11200000531971455, 1.0400000493973494, 0.03200000151991844, 0.0, 0.0, 0.0, 0.0, 0.0, 1.715101154310792E9, 0.0, 2024-05-07 11:59:14.310
60.0, -979.2778437975794, -154.86177736520767, -3330.9194561354816, -17.596229291521013, -0.11200000531971455, 1.0400000493973494, 0.03200000151991844, 0.0, 0.0, 0.0, 0.0, 0.0, 1.7151011543108063E9, 0.0, 2024-05-07 11:59:14.310
61.0, -969.8196368096396, -226.54069991596043, -3408.3353852182627, -85.13508259132504, -0.11200000531971455, 1.0240000486373901, 0.03200000151991844, 0.0, 0.0, 0.0, 0.0, 0.0, 1.7151011543115857E9, 0.0, 2024-05-07 11:59:14.311
61.0, -985.6169742224738, -143.0362137053162, -3375.356947408989, -15.69636011403054, -0.11200000531971455, 1.0240000486373901, 0.03200000151991844, 0.0, 0.0, 0.0, 0.0, 0.0, 1.7151011543116007E9, 0.0, 2024-05-07 11:59:14.311
62.0, -904.4237461844459, -64.88726423121989, -3257.1611492093652, 48.69723732303828, -0.11200000531971455, 1.0240000486373901, 0.03200000151991844, 0.0, 0.0, 0.0, 0.0, 0.0, 1.7151011543124216E9, 0.0, 2024-05-07 11:59:14.312
62.0, -1090.480029080063, -241.5638780379668, -3450.5513759180903, -86.21217377856374, -0.11200000531971455, 1.0240000486373901, 0.03200000151991844, 0.0, 0.0, 0.0, 0.0, 0.0, 1.7151011543124304E9, 0.0, 2024-05-07 11:59:14.312
63.0, -1009.9375436343253, -144.89120408333838, -3300.3569936975837, -27.77623697090894, -0.11200000531971455, 1.0240000486373901, 0.03200000151991844, 0.0, 0.0, 0.0, 0.0, 0.0, 1.715101154338956E9, 0.0, 2024-05-07 11:59:14.338
63.0, -882.9492406388745, -44.32529427483678, -3305.29740153905, 61.27826077397913, -0.11200000531971455, 1.0240000486373901, 0.03200000151991844, 0.0, 0.0, 0.0, 0.0, 0.0, 1.7151011543389733E9, 0.0, 2024-05-07 11:59:14.338
64.0, -1029.478520902805, -207.05208124686033, -3372.0695753479376, -23.232258524745703, -0.11200000531971455, 1.0240000486373901, 0.03200000151991844, 0.0, 0.0, 0.0, 0.0, 0.0, 1.715101154339651E9, 0.0, 2024-05-07 11:59:14.339
64.0, -1052.153534334153, -233.444555234164, -3564.9586554626003, -96.339822858572, -0.11200000531971455, 1.0240000486373901, 0.03200000151991844, 0.0, 0.0, 0.0, 0.0, 0.0, 1.7151011543396633E9, 0.0, 2024-05-07 11:59:14.339
65.0, -810.735512394458, -44.082200777716935, -3696.0402789595537, 98.39302793424577, -0.11200000531971455, 1.0240000486373901, 0.03200000151991844, 0.0, 0.0, 0.0, 0.0, 0.0, 1.7151011543691454E9, 0.0, 2024-05-07 11:59:14.369
65.0, -910.4562048129737, -130.40283165499568, -3790.4877124405466, 19.159507472999394, -0.11200000531971455, 1.0240000486373901, 0.03200000151991844, 0.0, 0.0, 0.0, 0.0, 0.0, 1.7151011543691635E9, 0.0, 2024-05-07 11:59:14.369
66.0, -1039.1312026884407, -230.93882226385176, -3908.567573741544, -54.77457475103438, -0.11200000531971455, 1.0240000486373901, 0.03200000151991844, 0.0, 0.0, 0.0, 0.0, 0.0, 1.715101154369432E9, 0.0, 2024-05-07 11:59:14.369
66.0, -951.1799754304811, -133.16661772225052, -3763.4744150605984, -75.73297410272062, -0.11200000531971455, 1.0240000486373901, 0.03200000151991844, 0.0, 0.0, 0.0, 0.0, 0.0, 1.715101154369444E9, 0.0, 2024-05-07 11:59:14.369
67.0, -891.5397908370942, -77.51316648162901, -3809.4228259162046, 48.083893730305135, -0.11200000531971455, 1.0240000486373901, 0.03200000151991844, 0.0, 0.0, 0.0, 0.0, 0.0, 1.7151011543700922E9, 0.0, 2024-05-07 11:59:14.370
67.0, -1079.252849413082, -249.81409734021872, -3895.339547598269, -110.52526339050382, -0.11200000531971455, 1.0240000486373901, 0.03200000151991844, 0.0, 0.0, 0.0, 0.0, 0.0, 1.7151011543701034E9, 0.0, 2024-05-07 11:59:14.370
68.0, -1042.6504485467449, -260.43915311433375, -4036.4796320260502, -75.63199680391699, -0.11200000531971455, 1.0240000486373901, 0.03200000151991844, 0.0, 0.0, 0.0, 0.0, 0.0, 1.7151011543709185E9, 0.0, 2024-05-07 11:59:14.370
68.0, -830.6616993583739, -50.41011150274426, -4223.577477059327, 70.50085406471044, -0.11200000531971455, 1.0240000486373901, 0.03200000151991844, 0.0, 0.0, 0.0, 0.0, 0.0, 1.715101154370927E9, 0.0, 2024-05-07 11:59:14.370
69.0, -1018.63655093126, -246.28363178204745, -4412.0310358265415, -68.44764898903668, -0.11200000531971455, 1.0240000486373901, 0.03200000151991844, 0.0, 0.0, 0.0, 0.0, 0.0, 1.715101154399264E9, 0.0, 2024-05-07 11:59:14.399
69.0, -1063.4966508997604, -239.64904926065356, -4516.265787491575, -128.00929568335414, -0.11200000531971455, 1.0240000486373901, 0.03200000151991844, 0.0, 0.0, 0.0, 0.0, 0.0, 1.7151011543992984E9, 0.0, 2024-05-07 11:59:14.399
70.0, -821.1885327706113, -40.435798320919275, -4689.166972293053, 86.6721814731136, -0.11200000531971455, 1.0240000486373901, 0.04800000227987766, 0.0, 0.0, 0.0, 0.0, 0.0, 1.715101154400109E9, 0.0, 2024-05-07 11:59:14.400
70.0, -890.6833537472412, -145.88975737150759, -4771.190458121244, 15.494405516423285, -0.11200000531971455, 1.0240000486373901, 0.04800000227987766, 0.0, 0.0, 0.0, 0.0, 0.0, 1.715101154400127E9, 0.0, 2024-05-07 11:59:14.400
71.0, -1001.8556198300794, -246.38834898080677, -4824.629888588097, -85.25849928986281, -0.11200000531971455, 1.0240000486373901, 0.04800000227987766, 0.0, 0.0, 0.0, 0.0, 0.0, 1.7151011544290025E9, 0.0, 2024-05-07 11:59:14.429
71.0, -931.9793290579692, -102.10300869029015, -4831.743178303819, 13.493559040129185, -0.11200000531971455, 1.0240000486373901, 0.04800000227987766, 0.0, 0.0, 0.0, 0.0, 0.0, 1.7151011544290185E9, 0.0, 2024-05-07 11:59:14.429
72.0, -899.1953660463914, -93.45635999273509, -4683.112074264791, 52.33242007996887, -0.09600000455975533, 1.0240000486373901, 0.04800000227987766, 0.0, 0.0, 0.0, 0.0, 0.0, 1.715101154429499E9, 0.0, 2024-05-07 11:59:14.429
