%OpenBCI Raw EXG Data
%Number of channels = 4
%Sample Rate = 200 Hz
%Board = OpenBCI_GUI$BoardGanglionNative
Sample Index, EXG Channel 0, EXG Channel 1, EXG Channel 2, EXG Channel 3, Accel Channel 0, Accel Channel 1, Accel Channel 2, Other, Other, Other, Other, Other, Timestamp, Other, Timestamp (Formatted)
89.0, -25.82400919403881, -63.46236234810203, -40.38717962149531, 21.971912239678204, 0.0, 0.0, 0.0, 0.0, 0.0, 0.0, 0.0, 0.0, 1.715100677071648E9, 0.0, 2024-05-07 11:51:17.071
89.0, -93.92758738715202, 90.33915337966755, -93.99116568639874, 74.16969592124224, 0.0, 0.0, 0.0, 0.0, 0.0, 0.0, 0.0, 0.0, 1.7151006770716853E9, 0.0, 2024-05-07 11:51:17.071
90.0, -92.79065780062228, 303.39751395536587, -72.83455163706094, 27.854774869978428, 0.0, 0.0, 0.144000006839633, 0.0, 0.0, 0.0, 0.0, 0.0, 1.715100677071804E9, 0.0, 2024-05-07 11:51:17.071
90.0, -61.51761437114328, 545.234404690098, -25.599615196697414, 9.443247388117015, 0.0, 0.0, 0.144000006839633, 0.0, 0.0, 0.0, 0.0, 0.0, 1.7151006770718184E9, 0.0, 2024-05-07 11:51:17.071
91.0, -154.1511963736266, 584.0115573806688, -239.79116545896977, 72.16510954499245, 0.0, 1.0720000509172678, 0.144000006839633, 0.0, 0.0, 0.0, 0.0, 0.0, 1.7151006770724106E9, 0.0, 2024-05-07 11:51:17.072
91.0, -127.38099249079823, 660.8365822704509, -210.81442060228437, 47.99039623141289, 0.0, 1.0720000509172678, 0.144000006839633, 0.0, 0.0, 0.0, 0.0, 0.0, 1.7151006770724225E9, 0.0, 2024-05-07 11:51:17.072
92.0, -27.76127737108618, 556.3867863579653, -34.014390096999705, -13.628195438534021, -0.01600000075995922, 1.0720000509172678, 0.144000006839633, 0.0, 0.0, 0.0, 0.0, 0.0, 1.715100677073207E9, 0.0, 2024-05-07 11:51:17.073
92.0, -201.70776421017945, 679.6482790475711, -195.091881188564, 51.722816387191415, -0.01600000075995922, 1.0720000509172678, 0.144000006839633, 0.0, 0.0, 0.0, 0.0, 0.0, 1.715100677073217E9, 0.0, 2024-05-07 11:51:17.073
93.0, -133.07686012331396, 601.6377058718354, -187.9075333736837, 62.26559436228126, -0.01600000075995922, 1.0720000509172678, 0.144000006839633, 0.0, 0.0, 0.0, 0.0, 0.0, 1.7151006771313453E9, 0.0, 2024-05-07 11:51:17.131
93.0, -15.763678313232958, 481.82814084133133, -6.0174990287050605, 2.3523970721289515, -0.01600000075995922, 1.0720000509172678, 0.144000006839633, 0.0, 0.0, 0.0, 0.0, 0.0, 1.7151006771313725E9, 0.0, 2024-05-07 11:51:17.131
94.0, -70.31011916697025, 410.01458189217374, -82.18056162633002, 37.88892645109445, -0.01600000075995922, 1.0720000509172678, 0.144000006839633, 0.0, 0.0, 0.0, 0.0, 0.0, 1.71510067713161E9, 0.0, 2024-05-07 11:51:17.131
94.0, -117.53009600751102, 639.9230617182329, -154.1437165737152, 75.95362820010632, -0.01600000075995922, 1.0720000509172678, 0.144000006839633, 0.0, 0.0, 0.0, 0.0, 0.0, 1.7151006771316192E9, 0.0, 2024-05-07 11:51:17.131
95.0, -23.538930321112275, 870.4542348869145, -79.56637155730277, 23.509011121466756, -0.01600000075995922, 1.0720000509172678, 0.144000006839633, 0.0, 0.0, 0.0, 0.0, 0.0, 1.7151006771324048E9, 0.0, 2024-05-07 11:51:17.132
95.0, -10.217406678944826, 1065.2319644792005, -1.4286417830735445, -5.523832234553993, -0.01600000075995922, 1.0720000509172678, 0.144000006839633, 0.0, 0.0, 0.0, 0.0, 0.0, 1.7151006771324153E9, 0.0, 2024-05-07 11:51:17.132
96.0, -129.74460926279426, 1141.7933264221065, -197.6836318578571, 78.02179287560284, -0.01600000075995922, 1.0720000509172678, 0.144000006839633, 0.0, 0.0, 0.0, 0.0, 0.0, 1.715100677161174E9, 0.0, 2024-05-07 11:51:17.161
96.0, -47.45185063779354, 1215.731148546096, -118.73060389328748, 59.2886339975521, -0.01600000075995922, 1.0720000509172678, 0.144000006839633, 0.0, 0.0, 0.0, 0.0, 0.0, 1.7151006771611931E9, 0.0, 2024-05-07 11:51:17.161
97.0, -18.16843398474157, 1064.4278859887272, -53.764801762998104, -6.283031925559044, -0.01600000075995922, 1.0720000509172678, 0.144000006839633, 0.0, 0.0, 0.0, 0.0, 0.0, 1.7151006771615987E9, 0.0, 2024-05-07 11:51:17.161
97.0, -178.6026622839272, 1198.1162197547965, -261.33298920374364, 57.355105720460415, -0.01600000075995922, 1.0720000509172678, 0.144000006839633, 0.0, 0.0, 0.0, 0.0, 0.0, 1.715100677161612E9, 0.0, 2024-05-07 11:51:17.161
98.0, -94.02482478599995, 1164.4945191531442, -171.94938026275486, 50.469949902035296, -0.01600000075995922, 1.0720000509172678, 0.144000006839633, 0.0, 0.0, 0.0, 0.0, 0.0, 1.7151006771623368E9, 0.0, 2024-05-07 11:51:17.162
98.0, -8.82242399547249, 989.4840307766572, -76.36127729527652, 8.354936501011252, -0.01600000075995922, 1.0720000509172678, 0.144000006839633, 0.0, 0.0, 0.0, 0.0, 0.0, 1.7151006771623507E9, 0.0, 2024-05-07 11:51:17.162
99.0, -127.07058079447597, 888.0055853789672, -156.2268408490345, 16.997845298610628, -0.01600000075995922, 1.0720000509172678, 0.144000006839633, 0.0, 0.0, 0.0, 0.0, 0.0, 1.715100677162924E9, 0.0, 2024-05-07 11:51:17.162
99.0, -122.44058464933187, 670.8445545518771, -266.73340473975986, 83.77001910749823, -0.01600000075995922, 1.0720000509172678, 0.144000006839633, 0.0, 0.0, 0.0, 0.0, 0.0, 1.7151006771629355E9, 0.0, 2024-05-07 11:51:17.162
100.0, -36.57622156664729, 834.218344216235, -108.77125031128526, 38.3526740456, -0.01600000075995922, 1.0720000509172678, 0.11200000531971455, 0.0, 0.0, 0.0, 0.0, 0.0, 1.7151006771636047E9, 0.0, 2024-05-07 11:51:17.163
100.0, 27.978191568516195, 607.8104107487015, 49.276921816170216, 8.930881094187498, -0.01600000075995922, 1.0720000509172678, 0.11200000531971455, 0.0, 0.0, 0.0, 0.0, 0.0, 1.7151006771636183E9, 0.0, 2024-05-07 11:51:17.163
0.0, -60.341415835078806, -7.24418621417135, -158.92891856702045, 51.43297414062545, -0.01600000075995922, 1.0720000509172678, 0.11200000531971455, 0.0, 0.0, 0.0, 0.0, 0.0, 1.71510067716468E9, 0.0, 2024-05-07 11:51:17.164
1.0, -116.37633687118068, 49.57611381262541, -206.4518273039721, 36.74264711467549, -0.01600000075995922, 1.0240000486373901, 0.11200000531971455, 0.0, 0.0, 0.0, 0.0, 0.0, 1.7151006771911623E9, 0.0, 2024-05-07 11:51:17.191
1.0, 12.212643305305392, -110.09704484557733, -446.1364056142047, -37.838437801692635, -0.01600000075995922, 1.0240000486373901, 0.11200000531971455, 0.0, 0.0, 0.0, 0.0, 0.0, 1.7151006771911829E9, 0.0, 2024-05-07 11:51:17.191
2.0, -148.2776834932156, 29.178699454292655, -602.9242314565927, 30.34741819044575, -0.03200000151991844, 1.0240000486373901, 0.11200000531971455, 0.0, 0.0, 0.0, 0.0, 0.0, 1.7151006771919312E9, 0.0, 2024-05-07 11:51:17.191
2.0, -149.2762367813848, -78.86701026558876, -651.8271632771939, 57.23729887185618, -0.03200000151991844, 1.0240000486373901, 0.11200000531971455, 0.0, 0.0, 0.0, 0.0, 0.0, 1.7151006771919498E9, 0.0, 2024-05-07 11:51:17.191
3.0, -67.75015764730051, -234.72921086894348, -506.9172596940771, -22.841438979376107, -0.03200000151991844, 1.0240000486373901, 0.11200000531971455, 0.0, 0.0, 0.0, 0.0, 0.0, 1.7151006772218983E9, 0.0, 2024-05-07 11:51:17.221
3.0, -63.191219601314515, -268.8445782647468, -505.5035775108263, 11.210350117180496, -0.03200000151991844, 1.0240000486373901, 0.11200000531971455, 0.0, 0.0, 0.0, 0.0, 0.0, 1.7151006772219417E9, 0.0, 2024-05-07 11:51:17.221
4.0, -170.066340635065, -76.85494408942759, -647.1074095331132, 60.25913803605363, -0.03200000151991844, 1.0240000486373901, 0.11200000531971455, 0.0, 0.0, 0.0, 0.0, 0.0, 1.7151006772222433E9, 0.0, 2024-05-07 11:51:17.222
4.0, 0.5778145431540906, 150.71422831434757, -501.74497805535793, 12.003208907786757, -0.03200000151991844, 1.0240000486373901, 0.11200000531971455, 0.0, 0.0, 0.0, 0.0, 0.0, 1.7151006772222595E9, 0.0, 2024-05-07 11:51:17.222
5.0, 49.050657868850976, -89.56125418888405, -417.44015325419605, -33.784386249724776, -0.03200000151991844, 1.0240000486373901, 0.11200000531971455, 0.0, 0.0, 0.0, 0.0, 0.0, 1.7151006772224224E9, 0.0, 2024-05-07 11:51:17.222
5.0, -60.14694103738293, 17.74582528974861, -538.0369672253728, 47.23680639034137, -0.03200000151991844, 1.0240000486373901, 0.11200000531971455, 0.0, 0.0, 0.0, 0.0, 0.0, 1.7151006772224312E9, 0.0, 2024-05-07 11:51:17.222
6.0, -31.832158472854644, 90.3036243300885, -523.7168902950361, 13.05412079533562, -0.03200000151991844, 1.0240000486373901, 0.11200000531971455, 0.0, 0.0, 0.0, 0.0, 0.0, 1.715100677223558E9, 0.0, 2024-05-07 11:51:17.223
6.0, 121.79919180693105, -47.061031092423946, -411.0524041298777, -37.35973060736433, -0.03200000151991844, 1.0240000486373901, 0.11200000531971455, 0.0, 0.0, 0.0, 0.0, 0.0, 1.7151006772235727E9, 0.0, 2024-05-07 11:51:17.223
7.0, -78.37895332137123, 106.69560583587736, -621.6461706347764, 39.25585988489911, -0.03200000151991844, 1.0240000486373901, 0.11200000531971455, 0.0, 0.0, 0.0, 0.0, 0.0, 1.7151006772512088E9, 0.0, 2024-05-07 11:51:17.251
7.0, -168.8022544500418, -59.59904569387436, -676.6002605836838, 65.89142736932263, -0.03200000151991844, 1.0240000486373901, 0.11200000531971455, 0.0, 0.0, 0.0, 0.0, 0.0, 1.7151006772512252E9, 0.0, 2024-05-07 11:51:17.251
8.0, -22.564686382655054, -164.5013695009984, -497.1224617101252, -27.819245820399374, -0.03200000151991844, 1.0240000486373901, 0.11200000531971455, 0.0, 0.0, 0.0, 0.0, 0.0, 1.715100677251583E9, 0.0, 2024-05-07 11:51:17.251
8.0, -114.17727569723502, -261.521854151506, -586.3041160535067, -5.611719883512706, -0.03200000151991844, 1.0240000486373901, 0.11200000531971455, 0.0, 0.0, 0.0, 0.0, 0.0, 1.7151006772515953E9, 0.0, 2024-05-07 11:51:17.251
9.0, -132.50652538007125, -29.42927275132388, -622.8915573200211, 57.932920263614506, -0.03200000151991844, 1.0240000486373901, 0.11200000531971455, 0.0, 0.0, 0.0, 0.0, 0.0, 1.7151006772525363E9, 0.0, 2024-05-07 11:51:17.252
9.0, -30.216521691996604, 172.20743335969746, -608.2087100939825, 8.23712965240702, -0.03200000151991844, 1.0240000486373901, 0.11200000531971455, 0.0, 0.0, 0.0, 0.0, 0.0, 1.7151006772525482E9, 0.0, 2024-05-07 11:51:17.252
10.0, 34.05365904653445, -69.6051480253227, -485.02762525342405, -22.908757178578526, -0.03200000151991844, 1.0240000486373901, 0.09600000455975533, 0.0, 0.0, 0.0, 0.0, 0.0, 1.7151006772811239E9, 0.0, 2024-05-07 11:51:17.281
10.0, 1.3407541341148317, 51.78639468643814, -570.4805993409827, 48.91976137040183, -0.03200000151991844, 1.0240000486373901, 0.09600000455975533, 0.0, 0.0, 0.0, 0.0, 0.0, 1.7151006772811427E9, 0.0, 2024-05-07 11:51:17.281
11.0, -23.21168907498941, 128.7984145740047, -551.3360514678061, 41.798991854768246, -0.03200000151991844, 1.0240000486373901, 0.09600000455975533, 0.0, 0.0, 0.0, 0.0, 0.0, 1.7151006773112042E9, 0.0, 2024-05-07 11:51:17.311
11.0, 154.84120791545138, -23.469742171932012, -344.5756824174896, -39.70838777953759, -0.03200000151991844, 1.0240000486373901, 0.09600000455975533, 0.0, 0.0, 0.0, 0.0, 0.0, 1.715100677311225E9, 0.0, 2024-05-07 11:51:17.311
12.0, -25.90441704308614, 127.47075008973479, -512.9646779224277, 26.30084643838927, -0.03200000151991844, 1.0240000486373901, 0.09600000455975533, 0.0, 0.0, 0.0, 0.0, 0.0, 1.7151006773117151E9, 0.0, 2024-05-07 11:51:17.311
12.0, 47.105909891892225, 66.65249701030552, -536.9636159380898, 55.03449779795483, -0.03200000151991844, 1.0240000486373901, 0.09600000455975533, 0.0, 0.0, 0.0, 0.0, 0.0, 1.7151006773117318E9, 0.0, 2024-05-07 11:51:17.311
13.0, 36.28263942012563, -170.85919942567125, -522.5313420090824, -25.95303574251011, -0.03200000151991844, 1.0240000486373901, 0.09600000455975533, 0.0, 0.0, 0.0, 0.0, 0.0, 1.7151006773124359E9, 0.0, 2024-05-07 11:51:17.312
13.0, -116.76154656661674, -262.23617504304275, -682.5953202126548, 6.2437629760243, -0.03200000151991844, 1.0240000486373901, 0.09600000455975533, 0.0, 0.0, 0.0, 0.0, 0.0, 1.7151006773124504E9, 0.0, 2024-05-07 11:51:17.312
14.0, -125.73356656031683, -40.91076561529189, -635.3529039723799, 60.56954973237589, -0.03200000151991844, 1.0240000486373901, 0.09600000455975533, 0.0, 0.0, 0.0, 0.0, 0.0, 1.7151006773131711E9, 0.0, 2024-05-07 11:51:17.313
14.0, -5.768795681651682, 149.2556673316285, -538.0855859247968, 6.995482867117971, -0.03200000151991844, 1.0240000486373901, 0.09600000455975533, 0.0, 0.0, 0.0, 0.0, 0.0, 1.7151006773131948E9, 0.0, 2024-05-07 11:51:17.313
15.0, 42.52453244617209, 390.3707573749125, -410.77191163320094, -29.476021500770003, -0.03200000151991844, 1.0240000486373901, 0.09600000455975533, 0.0, 0.0, 0.0, 0.0, 0.0, 1.7151006773139048E9, 0.0, 2024-05-07 11:51:17.313
15.0, -75.22621765872464, 491.45464332727715, -588.1179675320163, 46.5972834979184, -0.03200000151991844, 1.0240000486373901, 0.09600000455975533, 0.0, 0.0, 0.0, 0.0, 0.0, 1.7151006773139162E9, 0.0, 2024-05-07 11:51:17.313
16.0, -10.619445924181491, 573.9979752493091, -529.977482820861, 19.396991120185703, -0.03200000151991844, 1.0240000486373901, 0.09600000455975533, 0.0, 0.0, 0.0, 0.0, 0.0, 1.7151006773414876E9, 0.0, 2024-05-07 11:51:17.341
16.0, 122.46863389899954, 421.0416769115254, -380.05611329711974, -44.54781832220033, -0.03200000151991844, 1.0240000486373901, 0.09600000455975533, 0.0, 0.0, 0.0, 0.0, 0.0, 1.7151006773415177E9, 0.0, 2024-05-07 11:51:17.341
17.0, -59.675713642966, 579.2974134865217, -550.1804223814979, 41.97102725272998, -0.03200000151991844, 1.0240000486373901, 0.09600000455975533, 0.0, 0.0, 0.0, 0.0, 0.0, 1.7151006773415992E9, 0.0, 2024-05-07 11:51:17.341
17.0, 12.141585206147283, 496.89993766276166, -501.85343515407294, 49.99311265768483, -0.03200000151991844, 1.0240000486373901, 0.09600000455975533, 0.0, 0.0, 0.0, 0.0, 0.0, 1.71510067734161E9, 0.0, 2024-05-07 11:51:17.341
18.0, 79.45230460865423, 327.0879102246836, -377.6139586260542, -23.286487074103206, -0.03200000151991844, 1.0240000486373901, 0.09600000455975533, 0.0, 0.0, 0.0, 0.0, 0.0, 1.7151006773457143E9, 0.0, 2024-05-07 11:51:17.345
18.0, -54.376275405753404, 233.0032470393926, -496.6026156162843, 5.379846086259931, -0.03200000151991844, 1.0240000486373901, 0.09600000455975533, 0.0, 0.0, 0.0, 0.0, 0.0, 1.715100677345732E9, 0.0, 2024-05-07 11:51:17.345
19.0, -83.31188136292621, 437.4916268666275, -580.9037005174905, 63.179999901447445, -0.03200000151991844, 1.0240000486373901, 0.09600000455975533, 0.0, 0.0, 0.0, 0.0, 0.0, 1.7151006773710911E9, 0.0, 2024-05-07 11:51:17.371
19.0, -39.786925678607076, 672.4919804823585, -552.4542815545574, -7.361993062775582, -0.03200000151991844, 1.0240000486373901, 0.09600000455975533, 0.0, 0.0, 0.0, 0.0, 0.0, 1.7151006773711104E9, 0.0, 2024-05-07 11:51:17.371
20.0, -52.08371673291549, 851.3152968636714, -524.6144662844017, -27.710788721684366, -0.03200000151991844, 1.0240000486373901, 0.0800000037997961, 0.0, 0.0, 0.0, 0.0, 0.0, 1.7151006773716197E9, 0.0, 2024-05-07 11:51:17.371
20.0, -79.50466320803389, 974.8124032504857, -630.984700824134, 46.95631389366463, -0.03200000151991844, 1.0240000486373901, 0.0800000037997961, 0.0, 0.0, 0.0, 0.0, 0.0, 1.715100677371636E9, 0.0, 2024-05-07 11:51:17.371
21.0, -14.744555575307459, 1050.8707486493513, -512.0446625333279, 54.60440930305049, -0.03200000151991844, 1.0240000486373901, 0.0800000037997961, 0.0, 0.0, 0.0, 0.0, 0.0, 1.715100677372725E9, 0.0, 2024-05-07 11:51:17.372
21.0, 74.47823766758665, 920.6306026424281, -386.3765442222357, -38.82577138999477, -0.03200000151991844, 1.0240000486373901, 0.0800000037997961, 0.0, 0.0, 0.0, 0.0, 0.0, 1.7151006773727543E9, 0.0, 2024-05-07 11:51:17.372
22.0, -40.52742586983368, 1097.4325030976906, -514.1128272088245, 26.289626738522202, -0.03200000151991844, 1.0240000486373901, 0.0800000037997961, 0.0, 0.0, 0.0, 0.0, 0.0, 1.7151006774014103E9, 0.0, 2024-05-07 11:51:17.401
22.0, 0.8695267396979034, 998.0222223754972, -486.7068403335288, 57.48413226893172, -0.03200000151991844, 1.0240000486373901, 0.0800000037997961, 0.0, 0.0, 0.0, 0.0, 0.0, 1.715100677401431E9, 0.0, 2024-05-07 11:51:17.401
23.0, 92.4708963544108, 842.9790598624386, -390.9990605674684, -21.745648292358965, -0.03200000151991844, 1.0240000486373901, 0.0800000037997961, 0.0, 0.0, 0.0, 0.0, 0.0, 1.7151006774016745E9, 0.0, 2024-05-07 11:51:17.401
23.0, -39.857983777765185, 741.9007837600075, -531.7090565003455, 8.824293945450336, -0.03200000151991844, 1.0240000486373901, 0.0800000037997961, 0.0, 0.0, 0.0, 0.0, 0.0, 1.7151006774016876E9, 0.0, 2024-05-07 11:51:17.401
24.0, -137.20757962437347, 935.2667011190206, -639.6724884212017, 57.73470556596294, -0.03200000151991844, 1.0240000486373901, 0.0800000037997961, 0.0, 0.0, 0.0, 0.0, 0.0, 1.7151006774026845E9, 0.0, 2024-05-07 11:51:17.402
24.0, -89.8380067856051, 1099.0294403787702, -638.7337735323235, 5.215290488209575, -0.03200000151991844, 1.0240000486373901, 0.0800000037997961, 0.0, 0.0, 0.0, 0.0, 0.0, 1.715100677402706E9, 0.0, 2024-05-07 11:51:17.402
25.0, 1.4828703324310482, 876.7989751617424, -477.7385602397844, -22.71054248092696, -0.03200000151991844, 1.0240000486373901, 0.0800000037997961, 0.0, 0.0, 0.0, 0.0, 0.0, 1.7151006774311228E9, 0.0, 2024-05-07 11:51:17.431
25.0, -129.75395901268348, 980.6055082818493, -646.7184599377215, 46.05125810438767, -0.03200000151991844, 1.0240000486373901, 0.0800000037997961, 0.0, 0.0, 0.0, 0.0, 0.0, 1.7151006774311376E9, 0.0, 2024-05-07 11:51:17.431
26.0, -104.77890710858628, 1015.0873858733103, -643.9958127699792, 30.03700649412349, -0.03200000151991844, 1.0240000486373901, 0.0800000037997961, 0.0, 0.0, 0.0, 0.0, 0.0, 1.7151006774318285E9, 0.0, 2024-05-07 11:51:17.431
26.0, 50.49799915170297, 895.5620532394387, -884.2525957734324, -48.317637477535754, -0.03200000151991844, 1.0240000486373901, 0.0800000037997961, 0.0, 0.0, 0.0, 0.0, 0.0, 1.7151006774318469E9, 0.0, 2024-05-07 11:51:17.431
27.0, -46.82915729517117, 1091.1532110720873, -1061.9053234686144, 42.04208535188809, -0.03200000151991844, 1.0240000486373901, 0.0800000037997961, 0.0, 0.0, 0.0, 0.0, 0.0, 1.7151006774324346E9, 0.0, 2024-05-07 11:51:17.432
27.0, 4.826340892817825, 1009.5523339388892, -1011.5251311655156, 44.44310112344101, -0.03200000151991844, 1.0240000486373901, 0.0800000037997961, 0.0, 0.0, 0.0, 0.0, 0.0, 1.7151006774324489E9, 0.0, 2024-05-07 11:51:17.432
28.0, 85.26410913979635, 811.1450314396061, -899.9938346869312, -25.99791454197839, -0.03200000151991844, 1.0240000486373901, 0.0800000037997961, 0.0, 0.0, 0.0, 0.0, 0.0, 1.7151006774612195E9, 0.0, 2024-05-07 11:51:17.461
28.0, -29.322685602586716, 736.5340273235925, -981.3067395235412, 15.417737567331642, -0.03200000151991844, 1.0240000486373901, 0.0800000037997961, 0.0, 0.0, 0.0, 0.0, 0.0, 1.7151006774612434E9, 0.0, 2024-05-07 11:51:17.461
29.0, -107.38561737770215, 931.2911874661222, -1150.0435457243584, 49.64904186176136, -0.03200000151991844, 1.0240000486373901, 0.0800000037997961, 0.0, 0.0, 0.0, 0.0, 0.0, 1.7151006774616096E9, 0.0, 2024-05-07 11:51:17.461
29.0, -91.78275476256385, 1152.7568431422114, -1178.3134494894184, 5.2115505882538855, -0.03200000151991844, 1.0240000486373901, 0.0800000037997961, 0.0, 0.0, 0.0, 0.0, 0.0, 1.715100677461625E9, 0.0, 2024-05-07 11:51:17.461
30.0, -15.709449763875455, 1384.8774737920612, -1016.2897637090646, -18.162824134808034, -0.03200000151991844, 1.0240000486373901, 0.06400000303983688, 0.0, 0.0, 0.0, 0.0, 0.0, 1.7151006774626548E9, 0.0, 2024-05-07 11:51:17.462
30.0, -135.84625604050234, 1463.4322024113499, -1151.6741421050392, 57.121361973229796, -0.03200000151991844, 1.0240000486373901, 0.06400000303983688, 0.0, 0.0, 0.0, 0.0, 0.0, 1.7151006774626725E9, 0.0, 2024-05-07 11:51:17.462
31.0, -79.86743350373581, 1501.4482854609378, -1021.9444924420677, 37.774859502445906, -0.03200000151991844, 1.0400000493973494, 0.06400000303983688, 0.0, 0.0, 0.0, 0.0, 0.0, 1.715100677521428E9, 0.0, 2024-05-07 11:51:17.521
31.0, -33.358037654776126, 1325.252248798497, -879.0990136344917, -31.17019618069753, -0.03200000151991844, 1.0400000493973494, 0.06400000303983688, 0.0, 0.0, 0.0, 0.0, 0.0, 1.7151006775214539E9, 0.0, 2024-05-07 11:51:17.521
32.0, -150.72731796419248, 1461.1471235384233, -943.4813913716935, 42.76762594329193, -0.03200000151991844, 1.0400000493973494, 0.06400000303983688, 0.0, 0.0, 0.0, 0.0, 0.0, 1.71510067752181E9, 0.0, 2024-05-07 11:51:17.521
32.0, -170.26829523267224, 1357.8211675626226, -963.9648234290071, 53.104709420818835, -0.03200000151991844, 1.0400000493973494, 0.06400000303983688, 0.0, 0.0, 0.0, 0.0, 0.0, 1.7151006775218234E9, 0.0, 2024-05-07 11:51:17.521
33.0, -2.2046710238792, 1203.5297249406576, -790.691518581938, -28.604624811094254, -0.03200000151991844, 1.0400000493973494, 0.06400000303983688, 0.0, 0.0, 0.0, 0.0, 0.0, 1.7151006775223968E9, 0.0, 2024-05-07 11:51:17.522
33.0, -32.09021156979725, 1148.2240843959153, -815.4683557883836, -0.37585994554683566, -0.03200000151991844, 1.0400000493973494, 0.06400000303983688, 0.0, 0.0, 0.0, 0.0, 0.0, 1.7151006775224116E9, 0.0, 2024-05-07 11:51:17.522
34.0, -94.13141193473712, 1370.432110213209, -927.4372205617838, 69.66498642461374, -0.03200000151991844, 1.0400000493973494, 0.06400000303983688, 0.0, 0.0, 0.0, 0.0, 0.0, 1.7151006775237677E9, 0.0, 2024-05-07 11:51:17.523
34.0, -47.472420087549835, 1534.8306324654259, -910.6675091604702, 14.935290473047644, -0.03200000151991844, 1.0400000493973494, 0.06400000303983688, 0.0, 0.0, 0.0, 0.0, 0.0, 1.7151006775237808E9, 0.0, 2024-05-07 11:51:17.523
35.0, -33.63105035154149, 1734.3430754016154, -788.1745659117587, -22.026140789035708, -0.03200000151991844, 1.0400000493973494, 0.06400000303983688, 0.0, 0.0, 0.0, 0.0, 0.0, 1.7151006775243075E9, 0.0, 2024-05-07 11:51:17.524
35.0, -157.8331278800033, 1866.7299239831045, -993.5474320785142, 50.4119814527221, -0.03200000151991844, 1.0400000493973494, 0.06400000303983688, 0.0, 0.0, 0.0, 0.0, 0.0, 1.7151006775243173E9, 0.0, 2024-05-07 11:51:17.524
36.0, -139.68713329499587, 1930.801890023984, -982.7877399059944, 20.548880306538194, -0.03200000151991844, 1.0400000493973494, 0.06400000303983688, 0.0, 0.0, 0.0, 0.0, 0.0, 1.7151006775251305E9, 0.0, 2024-05-07 11:51:17.525
36.0, -24.30373986205086, 1803.766838279087, -916.6438692896627, -42.7414466436021, -0.03200000151991844, 1.0400000493973494, 0.06400000303983688, 0.0, 0.0, 0.0, 0.0, 0.0, 1.7151006775251403E9, 0.0, 2024-05-07 11:51:17.525
37.0, -179.2889339257963, 1983.3661839012057, -1097.8682014425285, 31.895736772101372, -0.03200000151991844, 1.0400000493973494, 0.06400000303983688, 0.0, 0.0, 0.0, 0.0, 0.0, 1.7151006775511084E9, 0.0, 2024-05-07 11:51:17.551
37.0, -135.20299324812368, 1903.5903779463843, -1074.549925218802, 51.096383144613355, -0.03200000151991844, 1.0400000493973494, 0.06400000303983688, 0.0, 0.0, 0.0, 0.0, 0.0, 1.7151006775511224E9, 0.0, 2024-05-07 11:51:17.551
38.0, 3.868926504161209, 1757.7548491242342, -900.973688475322, -17.672897240612656, -0.03200000151991844, 1.0400000493973494, 0.06400000303983688, 0.0, 0.0, 0.0, 0.0, 0.0, 1.7151006775516024E9, 0.0, 2024-05-07 11:51:17.551
38.0, -21.031327400822192, 1703.279466369655, -952.0943809696473, -0.37585994554683566, -0.03200000151991844, 1.0400000493973494, 0.06400000303983688, 0.0, 0.0, 0.0, 0.0, 0.0, 1.7151006775516155E9, 0.0, 2024-05-07 11:51:17.551
39.0, -53.112189220730215, 1939.5195968206972, -1033.4970434051938, 64.17481328966096, -0.03200000151991844, 1.0400000493973494, 0.06400000303983688, 0.0, 0.0, 0.0, 0.0, 0.0, 1.7151006775525482E9, 0.0, 2024-05-07 11:51:17.552
39.0, -21.52125429501757, 2083.9395735096186, -972.3459392297082, -0.2898422465659678, -0.03200000151991844, 1.0400000493973494, 0.06400000303983688, 0.0, 0.0, 0.0, 0.0, 0.0, 1.715100677552564E9, 0.0, 2024-05-07 11:51:17.552
40.0, 21.229542098473758, 1849.0458070426248, -925.9786595790647, -14.28080798080191, -0.03200000151991844, 1.0400000493973494, 0.0800000037997961, 0.0, 0.0, 0.0, 0.0, 0.0, 1.7151006775812569E9, 0.0, 2024-05-07 11:51:17.581
40.0, -97.07471319986507, 1947.9717707205564, -1091.3196366201155, 51.69476713752374, -0.03200000151991844, 1.0400000493973494, 0.0800000037997961, 0.0, 0.0, 0.0, 0.0, 0.0, 1.7151006775812976E9, 0.0, 2024-05-07 11:51:17.581
41.0, -33.384216954465955, 2038.660604746081, -1024.3006294141524, 61.83737581735477, -0.03200000151991844, 0.9920000471174717, 0.0800000037997961, 0.0, 0.0, 0.0, 0.0, 0.0, 1.7151006775819612E9, 0.0, 2024-05-07 11:51:17.581
41.0, 28.4400692130439, 1861.5707319942303, -943.1074013761245, -37.49810690572485, -0.03200000151991844, 0.9920000471174717, 0.0800000037997961, 0.0, 0.0, 0.0, 0.0, 0.0, 1.715100677582E9, 0.0, 2024-05-07 11:51:17.582
42.0, -151.66603285307065, 2020.207938364707, -1111.5450155804865, 36.09190452238545, -0.03200000151991844, 0.9920000471174717, 0.0800000037997961, 0.0, 0.0, 0.0, 0.0, 0.0, 1.7151006775825653E9, 0.0, 2024-05-07 11:51:17.582
42.0, -116.06966507481411, 1941.1539331013337, -1159.1876011160202, 43.69886103225872, -0.03200000151991844, 0.9920000471174717, 0.0800000037997961, 0.0, 0.0, 0.0, 0.0, 0.0, 1.7151006775825849E9, 0.0, 2024-05-07 11:51:17.582
43.0, 14.875452073756605, 1755.9821365452372, -1024.8541346075945, -23.61185837024823, -0.03200000151991844, 0.9920000471174717, 0.0800000037997961, 0.0, 0.0, 0.0, 0.0, 0.0, 1.7151006776115189E9, 0.0, 2024-05-07 11:51:17.611
43.0, -68.28496334096417, 1708.0328792133369, -1079.565131059382, -9.46007693791762, -0.03200000151991844, 0.9920000471174717, 0.0800000037997961, 0.0, 0.0, 0.0, 0.0, 0.0, 1.7151006776115324E9, 0.0, 2024-05-07 11:51:17.611
44.0, -86.64413222344592, 1927.219065866433, -1139.3474318510853, 69.36953432811424, -0.03200000151991844, 0.9920000471174717, 0.0800000037997961, 0.0, 0.0, 0.0, 0.0, 0.0, 1.7151006776410463E9, 0.0, 2024-05-07 11:51:17.641
44.0, -30.39977678982541, 2114.0420282529667, -1068.7269009877928, 13.787141186650842, -0.03200000151991844, 0.9920000471174717, 0.0800000037997961, 0.0, 0.0, 0.0, 0.0, 0.0, 1.7151006776410577E9, 0.0, 2024-05-07 11:51:17.641
45.0, 44.36082332441583, 2352.886999023147, -934.4794521783479, -18.24136203387752, -0.03200000151991844, 0.9920000471174717, 0.0800000037997961, 0.0, 0.0, 0.0, 0.0, 0.0, 1.715100677641564E9, 0.0, 2024-05-07 11:51:17.641
45.0, -64.88539428124204, 2477.5359945963137, -1090.3323030318134, 58.60984215559438, -0.03200000151991844, 0.9920000471174717, 0.0800000037997961, 0.0, 0.0, 0.0, 0.0, 0.0, 1.7151006776415744E9, 0.0, 2024-05-07 11:51:17.641
46.0, -4.336413998622447, 2533.118387737777, -1007.8450696091168, 47.33030388923362, -0.03200000151991844, 0.9920000471174717, 0.0800000037997961, 0.0, 0.0, 0.0, 0.0, 0.0, 1.715100677642291E9, 0.0, 2024-05-07 11:51:17.642
46.0, 46.743139596190304, 2384.361997050233, -924.3368434985168, -41.22678716154769, -0.03200000151991844, 0.9920000471174717, 0.0800000037997961, 0.0, 0.0, 0.0, 0.0, 0.0, 1.7151006776423056E9, 0.0, 2024-05-07 11:51:17.642
47.0, -101.49527494749054, 2569.3280991087668, -1129.0963660725392, 32.28842626744881, -0.03200000151991844, 0.9920000471174717, 0.0800000037997961, 0.0, 0.0, 0.0, 0.0, 0.0, 1.7151006776429684E9, 0.0, 2024-05-07 11:51:17.642
47.0, -87.74366281041875, 2463.997556756716, -1115.84590052953, 51.552650939207524, -0.03200000151991844, 0.9920000471174717, 0.0800000037997961, 0.0, 0.0, 0.0, 0.0, 0.0, 1.7151006776429784E9, 0.0, 2024-05-07 11:51:17.642
48.0, 28.118437816854566, 2292.5437132380903, -995.2490865583532, -20.76579450396821, -0.03200000151991844, 0.9920000471174717, 0.0800000037997961, 0.0, 0.0, 0.0, 0.0, 0.0, 1.7151006776438427E9, 0.0, 2024-05-07 11:51:17.643
48.0, -71.96502489736304, 2223.6173570547253, -1067.9190825973637, 12.051827607210726, -0.03200000151991844, 0.9920000471174717, 0.0800000037997961, 0.0, 0.0, 0.0, 0.0, 0.0, 1.715100677643864E9, 0.0, 2024-05-07 11:51:17.643
49.0, -71.09362820768729, 2447.9646056466736, -1074.0525185246952, 52.89901492325589, -0.03200000151991844, 0.9920000471174717, 0.0800000037997961, 0.0, 0.0, 0.0, 0.0, 0.0, 1.7151006776713867E9, 0.0, 2024-05-07 11:51:17.671
49.0, 8.326887251343578, 2649.2235818621702, -1000.2156736995094, -10.855059621389955, -0.03200000151991844, 0.9920000471174717, 0.0800000037997961, 0.0, 0.0, 0.0, 0.0, 0.0, 1.7151006776714213E9, 0.0, 2024-05-07 11:51:17.671
50.0, 42.285178849007934, 2856.5411960058846, -956.0586749226786, -22.923716778401285, -0.03200000151991844, 0.9920000471174717, 0.04800000227987766, 0.0, 0.0, 0.0, 0.0, 0.0, 1.7151006776716309E9, 0.0, 2024-05-07 11:51:17.671
50.0, -50.56905725086108, 2979.144466303289, -1099.0724492282607, 53.73675251333043, -0.03200000151991844, 0.9920000471174717, 0.04800000227987766, 0.0, 0.0, 0.0, 0.0, 0.0, 1.7151006776716456E9, 0.0, 2024-05-07 11:51:17.671
51.0, -1.445471332874149, 3028.9262746134773, -1011.6448079640977, 61.186633225064725, -0.03200000151991844, 1.0560000501573086, 0.04800000227987766, 0.0, 0.0, 0.0, 0.0, 0.0, 1.7151006776727543E9, 0.0, 2024-05-07 11:51:17.672
51.0, 68.81228923471645, 2878.71506284317, -906.8341117058881, -35.22798763262108, -0.03200000151991844, 1.0560000501573086, 0.04800000227987766, 0.0, 0.0, 0.0, 0.0, 0.0, 1.71510067767278E9, 0.0, 2024-05-07 11:51:17.672
52.0, -87.07422071835026, 3058.598640861921, -1109.2449771077372, 33.99008074728772, -0.03200000151991844, 1.0560000501573086, 0.04800000227987766, 0.0, 0.0, 0.0, 0.0, 0.0, 1.715100677701148E9, 0.0, 2024-05-07 11:51:17.701
52.0, -84.2057174523361, 2929.4262362923473, -1118.9724568924867, 66.50851086201146, -0.03200000151991844, 1.0560000501573086, 0.04800000227987766, 0.0, 0.0, 0.0, 0.0, 0.0, 1.7151006777011633E9, 0.0, 2024-05-07 11:51:17.701
53.0, -15.952543260995299, 2758.761511664372, -968.6733574732207, -31.394590178038925, -0.03200000151991844, 1.0560000501573086, 0.04800000227987766, 0.0, 0.0, 0.0, 0.0, 0.0, 1.715100677701644E9, 0.0, 2024-05-07 11:51:17.701
53.0, -79.4635243085213, 2699.966544460971, -1037.4239383586682, -13.372012291569263, -0.03200000151991844, 1.0560000501573086, 0.04800000227987766, 0.0, 0.0, 0.0, 0.0, 0.0, 1.7151006777016573E9, 0.0, 2024-05-07 11:51:17.701
54.0, -110.30273934314027, 2913.269868483767, -1127.3124337936752, 50.1539283557795, -0.03200000151991844, 1.0560000501573086, 0.04800000227987766, 0.0, 0.0, 0.0, 0.0, 0.0, 1.7151006777027621E9, 0.0, 2024-05-07 11:51:17.702
54.0, -26.977768330369145, 3140.7717226883397, -1014.692826427985, -0.02056944975629449, -0.03200000151991844, 1.0560000501573086, 0.04800000227987766, 0.0, 0.0, 0.0, 0.0, 0.0, 1.715100677702779E9, 0.0, 2024-05-07 11:51:17.702
55.0, 15.428957267198712, 3327.804119472392, -982.032280114945, -23.91479026665911, -0.03200000151991844, 1.0560000501573086, 0.04800000227987766, 0.0, 0.0, 0.0, 0.0, 0.0, 1.7151006777611656E9, 0.0, 2024-05-07 11:51:17.761
55.0, -73.71155817667022, 3449.9810411748476, -1085.1188824935816, 57.80576366512105, -0.03200000151991844, 1.0560000501573086, 0.04800000227987766, 0.0, 0.0, 0.0, 0.0, 0.0, 1.715100677761184E9, 0.0, 2024-05-07 11:51:17.761
56.0, -57.977799063082784, 3469.249005746562, -1065.7499406230636, 39.667248880025, -0.03200000151991844, 1.0560000501573086, 0.04800000227987766, 0.0, 0.0, 0.0, 0.0, 0.0, 1.7151006777912698E9, 0.0, 2024-05-07 11:51:17.791
56.0, 76.68851854139939, 3350.355716205202, -887.296874337364, -44.82831081887707, -0.03200000151991844, 1.0560000501573086, 0.04800000227987766, 0.0, 0.0, 0.0, 0.0, 0.0, 1.7151006777912855E9, 0.0, 2024-05-07 11:51:17.791
57.0, -76.75209684064612, 3542.479986778926, -1056.1608371366747, 39.57749128108844, -0.03200000151991844, 1.0560000501573086, 0.04800000227987766, 0.0, 0.0, 0.0, 0.0, 0.0, 1.7151006777916126E9, 0.0, 2024-05-07 11:51:17.791
57.0, -51.81818383606151, 3427.8258738373406, -1049.9713027100079, 50.12400915613398, -0.03200000151991844, 1.0560000501573086, 0.04800000227987766, 0.0, 0.0, 0.0, 0.0, 0.0, 1.7151006777916281E9, 0.0, 2024-05-07 11:51:17.791
58.0, 31.345971478614956, 3247.332692125812, -961.3431535600685, -31.439468977507204, -0.03200000151991844, 1.0560000501573086, 0.04800000227987766, 0.0, 0.0, 0.0, 0.0, 0.0, 1.715100677792446E9, 0.0, 2024-05-07 11:51:17.792
58.0, -68.58041543746367, 3188.4105683239177, -1059.0330803026445, 7.930457856040448, -0.03200000151991844, 1.0560000501573086, 0.04800000227987766, 0.0, 0.0, 0.0, 0.0, 0.0, 1.7151006777924635E9, 0.0, 2024-05-07 11:51:17.792
59.0, -150.6413002652116, 3360.5263741347007, -1208.0082551375963, 66.37013456365094, -0.03200000151991844, 1.0560000501573086, 0.04800000227987766, 0.0, 0.0, 0.0, 0.0, 0.0, 1.71510067779312E9, 0.0, 2024-05-07 11:51:17.793
59.0, -47.5584377865307, 3580.9822568227537, -1016.5216375063173, 3.1508657126687467, -0.03200000151991844, 1.0560000501573086, 0.04800000227987766, 0.0, 0.0, 0.0, 0.0, 0.0, 1.7151006777931445E9, 0.0, 2024-05-07 11:51:17.793
60.0, -4.456090797204524, 3802.313276100438, -958.4634305941872, -24.4009772608988, -0.03200000151991844, 1.0560000501573086, 0.04800000227987766, 0.0, 0.0, 0.0, 0.0, 0.0, 1.715100677793602E9, 0.0, 2024-05-07 11:51:17.793
60.0, -89.77442848635837, 3914.441086621955, -1082.8151041208766, 53.99106571031734, -0.03200000151991844, 1.0560000501573086, 0.04800000227987766, 0.0, 0.0, 0.0, 0.0, 0.0, 1.7151006777936168E9, 0.0, 2024-05-07 11:51:17.793
61.0, -14.594959577079862, 3971.5792781449854, -1045.0533342682756, 43.1864947383292, -0.03200000151991844, 1.008000047877431, 0.04800000227987766, 0.0, 0.0, 0.0, 0.0, 0.0, 1.7151006777942564E9, 0.0, 2024-05-07 11:51:17.794
61.0, 77.73943042894825, 3843.246481115464, -888.3777054245584, -43.2238937378861, -0.03200000151991844, 1.008000047877431, 0.04800000227987766, 0.0, 0.0, 0.0, 0.0, 0.0, 1.7151006777942648E9, 0.0, 2024-05-07 11:51:17.794
62.0, -48.44479407602921, 4036.2982468781993, -1045.0084554688074, 38.83699108986184, -0.01600000075995922, 1.008000047877431, 0.04800000227987766, 0.0, 0.0, 0.0, 0.0, 0.0, 1.715100677795138E9, 0.0, 2024-05-07 11:51:17.795
62.0, -29.59569829935208, 3889.114484122023, -1028.1602061684243, 63.65870709577575, -0.01600000075995922, 1.008000047877431, 0.04800000227987766, 0.0, 0.0, 0.0, 0.0, 0.0, 1.715100677795149E9, 0.0, 2024-05-07 11:51:17.795
64.0, -62.97056550392881, 4110.41745415004, -1124.3429532288574, 116.97472086409107, -0.01600000075995922, 1.008000047877431, 0.04800000227987766, 0.0, 0.0, 0.0, 0.0, 0.0, 1.7151006778212793E9, 0.0, 2024-05-07 11:51:17.821
64.0, 29.18430930422619, 4286.753737060819, -1022.4157198364846, 69.25733732944354, -0.01600000075995922, 1.008000047877431, 0.04800000227987766, 0.0, 0.0, 0.0, 0.0, 0.0, 1.7151006778212917E9, 0.0, 2024-05-07 11:51:17.821
65.0, 9.366579439025372, 4507.478892545681, -988.1993751418777, 45.77450550766662, -0.01600000075995922, 1.008000047877431, 0.04800000227987766, 0.0, 0.0, 0.0, 0.0, 0.0, 1.715100677821663E9, 0.0, 2024-05-07 11:51:17.821
65.0, -73.50212377915159, 4626.435760386288, -1126.8935649986379, 129.2303730188869, -0.01600000075995922, 1.008000047877431, 0.04800000227987766, 0.0, 0.0, 0.0, 0.0, 0.0, 1.7151006778216772E9, 0.0, 2024-05-07 11:51:17.821
66.0, -65.50247777393088, 4653.11620667018, -1081.364022938069, 96.97747580101714, -0.01600000075995922, 1.008000047877431, 0.04800000227987766, 0.0, 0.0, 0.0, 0.0, 0.0, 1.715100677822711E9, 0.0, 2024-05-07 11:51:17.822
66.0, 90.6533049759455, 4526.372867121827, -917.1936345831491, 24.079345864709467, -0.01600000075995922, 1.008000047877431, 0.04800000227987766, 0.0, 0.0, 0.0, 0.0, 0.0, 1.7151006778227253E9, 0.0, 2024-05-07 11:51:17.822
67.0, -44.38326272414997, 4731.025802547112, -1053.901937563438, 96.40901100775227, -0.01600000075995922, 1.008000047877431, 0.04800000227987766, 0.0, 0.0, 0.0, 0.0, 0.0, 1.7151006778512342E9, 0.0, 2024-05-07 11:51:17.851
67.0, -22.624524781946093, 4606.756406819448, -1102.0643691928126, 116.54837226914242, -0.01600000075995922, 1.008000047877431, 0.04800000227987766, 0.0, 0.0, 0.0, 0.0, 0.0, 1.7151006778512552E9, 0.0, 2024-05-07 11:51:17.851
68.0, 93.98555583646521, 4446.256730271038, -944.1209142641164, 44.20748742623255, -0.01600000075995922, 1.008000047877431, 0.04800000227987766, 0.0, 0.0, 0.0, 0.0, 0.0, 1.7151006778517728E9, 0.0, 2024-05-07 11:51:17.851
68.0, 6.142785677220672, 4392.218915811274, -1013.2305255453102, 68.70757203595713, -0.01600000075995922, 1.008000047877431, 0.04800000227987766, 0.0, 0.0, 0.0, 0.0, 0.0, 1.7151006778517876E9, 0.0, 2024-05-07 11:51:17.851
69.0, -25.57530584698543, 4575.685317987576, -1101.264030602295, 149.63900707708672, -0.01600000075995922, 1.008000047877431, 0.04800000227987766, 0.0, 0.0, 0.0, 0.0, 0.0, 1.7151006778526616E9, 0.0, 2024-05-07 11:51:17.852
69.0, 32.32208536705002, 4785.142154905945, -1016.2523647095077, 72.11462089559063, -0.01600000075995922, 1.008000047877431, 0.04800000227987766, 0.0, 0.0, 0.0, 0.0, 0.0, 1.715100677852682E9, 0.0, 2024-05-07 11:51:17.852
70.0, 21.52873409492895, 4995.178676317446, -970.8088403479196, 27.58363212319091, -0.01600000075995922, 1.008000047877431, 0.0800000037997961, 0.0, 0.0, 0.0, 0.0, 0.0, 1.715100677881164E9, 0.0, 2024-05-07 11:51:17.881
70.0, -91.8762522614561, 5121.099237875547, -1133.1429378245957, 123.47466698708013, -0.01600000075995922, 1.008000047877431, 0.0800000037997961, 0.0, 0.0, 0.0, 0.0, 0.0, 1.7151006778811796E9, 0.0, 2024-05-07 11:51:17.881
71.0, -44.37952282419428, 5146.111688779201, -1098.74333803216, 99.40467087225989, -0.01600000075995922, 1.0240000486373901, 0.0800000037997961, 0.0, 0.0, 0.0, 0.0, 0.0, 1.715100677881575E9, 0.0, 2024-05-07 11:51:17.881
71.0, 68.22512494167313, 5019.420707830228, -944.4649850600399, 20.189849910791963, -0.01600000075995922, 1.0240000486373901, 0.0800000037997961, 0.0, 0.0, 0.0, 0.0, 0.0, 1.7151006778815873E9, 0.0, 2024-05-07 11:51:17.881
72.0, -56.47809918085113, 5216.100176549982, -1082.7777051213197, 109.16954965656623, -0.03200000151991844, 1.0240000486373901, 0.0800000037997961, 0.0, 0.0, 0.0, 0.0, 0.0, 1.7151006778824787E9, 0.0, 2024-05-07 11:51:17.882
72.0, -79.92727190302685, 5092.46282391483, -1120.692810872104, 131.91936108702794, -0.03200000151991844, 1.0240000486373901, 0.0800000037997961, 0.0, 0.0, 0.0, 0.0, 0.0, 1.7151006778824856E9, 0.0, 2024-05-07 11:51:17.882
73.0, 75.1663792594336, 4930.601823782548, -950.9499715832062, 27.09744512895122, -0.03200000151991844, 1.0240000486373901, 0.0800000037997961, 0.0, 0.0, 0.0, 0.0, 0.0, 1.7151006779117014E9, 0.0, 2024-05-07 11:51:17.911
73.0, -0.6488726423121989, 4880.008457181975, -1007.4374205139466, 70.85427461052313, -0.03200000151991844, 1.0240000486373901, 0.0800000037997961, 0.0, 0.0, 0.0, 0.0, 0.0, 1.7151006779117184E9, 0.0, 2024-05-07 11:51:17.911
74.0, -53.127148820552975, 5066.320923224557, -1124.0512410323136, 128.25799903040752, -0.03200000151991844, 1.0240000486373901, 0.0800000037997961, 0.0, 0.0, 0.0, 0.0, 0.0, 1.7151006779118996E9, 0.0, 2024-05-07 11:51:17.911
74.0, 24.673989957664162, 5292.1398224490695, -1003.8583362563513, 51.71720653725788, -0.03200000151991844, 1.0240000486373901, 0.0800000037997961, 0.0, 0.0, 0.0, 0.0, 0.0, 1.7151006779119172E9, 0.0, 2024-05-07 11:51:17.911
75.0, 15.92262406134978, 5499.184423896018, -1005.0588441421278, 33.425355853978544, -0.03200000151991844, 1.0240000486373901, 0.0800000037997961, 0.0, 0.0, 0.0, 0.0, 0.0, 1.715100677912613E9, 0.0, 2024-05-07 11:51:17.912
75.0, -74.50815686723217, 5619.483915820718, -1119.7204368836246, 120.16485552629456, -0.03200000151991844, 1.0240000486373901, 0.0800000037997961, 0.0, 0.0, 0.0, 0.0, 0.0, 1.7151006779126344E9, 0.0, 2024-05-07 11:51:17.912
76.0, -28.858938008081168, 5651.160868445411, -1073.270879433956, 109.48370125284418, -0.03200000151991844, 1.0240000486373901, 0.0800000037997961, 0.0, 0.0, 0.0, 0.0, 0.0, 1.715100677941131E9, 0.0, 2024-05-07 11:51:17.941
76.0, 39.12122348649427, 5523.519952907693, -971.62413853826, 24.74504805682227, -0.03200000151991844, 1.0240000486373901, 0.0800000037997961, 0.0, 0.0, 0.0, 0.0, 0.0, 1.7151006779411445E9, 0.0, 2024-05-07 11:51:17.941
77.0, -83.63725265907124, 5721.901076107286, -1099.6633534212597, 104.49467471195385, -0.03200000151991844, 1.0240000486373901, 0.0800000037997961, 0.0, 0.0, 0.0, 0.0, 0.0, 1.7151006779416237E9, 0.0, 2024-05-07 11:51:17.941
77.0, -67.21161205368116, 5580.832049778663, -1097.3595750485547, 133.92768736323342, -0.03200000151991844, 1.0240000486373901, 0.0800000037997961, 0.0, 0.0, 0.0, 0.0, 0.0, 1.7151006779416347E9, 0.0, 2024-05-07 11:51:17.941
78.0, 71.81542889913544, 5435.8753974461, -972.4730958282016, 31.25247397972271, -0.03200000151991844, 1.0240000486373901, 0.0800000037997961, 0.0, 0.0, 0.0, 0.0, 0.0, 1.715100677942506E9, 0.0, 2024-05-07 11:51:17.942
78.0, -28.00624081818387, 5367.760599553119, -1047.2262161425315, 80.39475939748809, -0.03200000151991844, 1.0240000486373901, 0.0800000037997961, 0.0, 0.0, 0.0, 0.0, 0.0, 1.7151006779425175E9, 0.0, 2024-05-07 11:51:17.942
79.0, -73.72651777649298, 5590.548309863545, -1116.1675319257192, 128.09344343235716, -0.03200000151991844, 1.0240000486373901, 0.0800000037997961, 0.0, 0.0, 0.0, 0.0, 0.0, 1.7151006780011356E9, 0.0, 2024-05-07 11:51:18.001
79.0, 17.49338204273954, 5782.943723184057, -1007.1083093178459, 49.880915659014136, -0.03200000151991844, 1.0240000486373901, 0.0800000037997961, 0.0, 0.0, 0.0, 0.0, 0.0, 1.7151006780011508E9, 0.0, 2024-05-07 11:51:18.001
80.0, 21.764347792137414, 5991.723638210446, -964.6454852209426, 42.87234314205125, -0.03200000151991844, 1.0240000486373901, 0.04800000227987766, 0.0, 0.0, 0.0, 0.0, 0.0, 1.7151006780016987E9, 0.0, 2024-05-07 11:51:18.001
80.0, -96.77178130345419, 6106.551656499971, -1133.610425319057, 130.483239504043, -0.03200000151991844, 1.0240000486373901, 0.04800000227987766, 0.0, 0.0, 0.0, 0.0, 0.0, 1.7151006780017135E9, 0.0, 2024-05-07 11:51:18.001
81.0, -73.6816389770247, 6133.082506785635, -1145.9894941723906, 94.1762907342054, -0.03200000151991844, 1.0400000493973494, 0.04800000227987766, 0.0, 0.0, 0.0, 0.0, 0.0, 1.7151006780312557E9, 0.0, 2024-05-07 11:51:18.031
81.0, 41.421261959243566, 6016.7996674133465, -953.0817145579495, 13.48046939028427, -0.03200000151991844, 1.0400000493973494, 0.04800000227987766, 0.0, 0.0, 0.0, 0.0, 0.0, 1.7151006780312755E9, 0.0, 2024-05-07 11:51:18.031
82.0, -81.19509798800573, 6212.147731748875, -1113.119513461832, 100.91559045435861, -0.03200000151991844, 1.0400000493973494, 0.04800000227987766, 0.0, 0.0, 0.0, 0.0, 0.0, 1.7151006780317185E9, 0.0, 2024-05-07 11:51:18.031
82.0, -65.31548277614638, 6073.939728886355, -1098.8817143305205, 128.818984023761, -0.03200000151991844, 1.0400000493973494, 0.04800000227987766, 0.0, 0.0, 0.0, 0.0, 0.0, 1.715100678031738E9, 0.0, 2024-05-07 11:51:18.031
83.0, 34.206994944717735, 5919.767963062972, -999.4789134082384, 38.272266196552664, -0.03200000151991844, 1.0400000493973494, 0.04800000227987766, 0.0, 0.0, 0.0, 0.0, 0.0, 1.7151006780323398E9, 0.0, 2024-05-07 11:51:18.032
83.0, -21.816706391517073, 5869.376551060006, -1044.7878013714217, 70.96273170923814, -0.03200000151991844, 1.0400000493973494, 0.04800000227987766, 0.0, 0.0, 0.0, 0.0, 0.0, 1.715100678032354E9, 0.0, 2024-05-07 11:51:18.032
84.0, -73.28146968176588, 6058.392964770552, -1100.6282476098277, 136.66529413079843, -0.03200000151991844, 1.0400000493973494, 0.04800000227987766, 0.0, 0.0, 0.0, 0.0, 0.0, 1.7151006780329535E9, 0.0, 2024-05-07 11:51:18.032
84.0, 50.348403153475374, 6260.115688580554, -995.5071396552958, 48.05210458068177, -0.03200000151991844, 1.0400000493973494, 0.04800000227987766, 0.0, 0.0, 0.0, 0.0, 0.0, 1.715100678032963E9, 0.0, 2024-05-07 11:51:18.032
85.0, 22.545986882876605, 6470.305545890238, -954.5851543401368, 54.94474019901827, -0.03200000151991844, 1.0400000493973494, 0.04800000227987766, 0.0, 0.0, 0.0, 0.0, 0.0, 1.715100678033591E9, 0.0, 2024-05-07 11:51:18.033
85.0, -62.03933041496202, 6590.15998972021, -1091.8656620136462, 122.85010369447991, -0.03200000151991844, 1.0400000493973494, 0.04800000227987766, 0.0, 0.0, 0.0, 0.0, 0.0, 1.715100678033604E9, 0.0, 2024-05-07 11:51:18.033
86.0, -45.75954590784386, 6627.839481773786, -1089.0644769468345, 103.05855312896892, -0.03200000151991844, 1.0400000493973494, 0.04800000227987766, 0.0, 0.0, 0.0, 0.0, 0.0, 1.7151006780342329E9, 0.0, 2024-05-07 11:51:18.034
86.0, 58.811796753201634, 6496.634441578295, -939.1655468228273, 17.328826444689184, -0.03200000151991844, 1.0400000493973494, 0.04800000227987766, 0.0, 0.0, 0.0, 0.0, 0.0, 1.7151006780342393E9, 0.0, 2024-05-07 11:51:18.034
87.0, -71.2020853064023, 6688.205206958577, -1097.9916181410663, 109.1097112572752, -0.03200000151991844, 1.0400000493973494, 0.04800000227987766, 0.0, 0.0, 0.0, 0.0, 0.0, 1.7151006780352342E9, 0.0, 2024-05-07 11:51:18.035
87.0, -70.92159280972555, 6563.7824753327295, -1147.238620757591, 117.27765276050195, -0.03200000151991844, 1.0400000493973494, 0.04800000227987766, 0.0, 0.0, 0.0, 0.0, 0.0, 1.7151006780352452E9, 0.0, 2024-05-07 11:51:18.035
88.0, 54.727826001588255, 6408.772971919272, -960.3221608721651, 41.20808766176924, -0.03200000151991844, 1.0400000493973494, 0.04800000227987766, 0.0, 0.0, 0.0, 0.0, 0.0, 1.7151006780612245E9, 0.0, 2024-05-07 11:51:18.061
88.0, -44.76847241958603, 6345.849155164789, -1052.4022376812063, 83.42033846164122, -0.03200000151991844, 1.0400000493973494, 0.04800000227987766, 0.0, 0.0, 0.0, 0.0, 0.0, 1.7151006780612402E9, 0.0, 2024-05-07 11:51:18.061
89.0, -99.6963830688037, 6538.291317234747, -1142.9639151082374, 137.8583222166635, -0.03200000151991844, 1.0400000493973494, 0.04800000227987766, 0.0, 0.0, 0.0, 0.0, 0.0, 1.715100678091182E9, 0.0, 2024-05-07 11:51:18.091
89.0, 42.35623694816604, 6732.3173269359395, -1003.8209372567944, 48.91228157049045, -0.03200000151991844, 1.0400000493973494, 0.04800000227987766, 0.0, 0.0, 0.0, 0.0, 0.0, 1.7151006780912101E9, 0.0, 2024-05-07 11:51:18.091
90.0, 50.15018845582381, 6969.61771902442, -958.9196983887814, 37.789819102268666, -0.03200000151991844, 1.0400000493973494, 0.04800000227987766, 0.0, 0.0, 0.0, 0.0, 0.0, 1.715100678091894E9, 0.0, 2024-05-07 11:51:18.091
90.0, -42.677868344355375, 7080.859173256438, -1109.850840900559, 132.1512348842807, -0.03200000151991844, 1.0400000493973494, 0.04800000227987766, 0.0, 0.0, 0.0, 0.0, 0.0, 1.7151006780919156E9, 0.0, 2024-05-07 11:51:18.091
91.0, 0.9854636383242905, 7119.888769194018, -1086.9252541721798, 98.79880707943812, -0.03200000151991844, 1.0240000486373901, 0.04800000227987766, 0.0, 0.0, 0.0, 0.0, 0.0, 1.7151006780923676E9, 0.0, 2024-05-07 11:51:18.092
91.0, 67.79503644676879, 6995.3220514198765, -922.586570319254, 17.721515940036625, -0.03200000151991844, 1.0240000486373901, 0.04800000227987766, 0.0, 0.0, 0.0, 0.0, 0.0, 1.7151006780923896E9, 0.0, 2024-05-07 11:51:18.092
92.0, -63.198699401225895, 7186.481427805033, -1078.3272241740488, 112.73367431433871, 0.0, 1.0240000486373901, 0.04800000227987766, 0.0, 0.0, 0.0, 0.0, 0.0, 1.7151006780931025E9, 0.0, 2024-05-07 11:51:18.093
92.0, -53.46373981656507, 7030.684675450902, -1109.7610833016224, 107.81570587260649, 0.0, 1.0240000486373901, 0.04800000227987766, 0.0, 0.0, 0.0, 0.0, 0.0, 1.715100678093115E9, 0.0, 2024-05-07 11:51:18.093
93.0, 43.863416630309075, 6909.4876075368375, -963.579613733571, 37.61778370430693, 0.0, 1.0240000486373901, 0.04800000227987766, 0.0, 0.0, 0.0, 0.0, 0.0, 1.7151006780938144E9, 0.0, 2024-05-07 11:51:18.093
93.0, -44.93302801763639, 6848.452440259978, -1053.9094173633493, 79.69165820581838, 0.0, 1.0240000486373901, 0.04800000227987766, 0.0, 0.0, 0.0, 0.0, 0.0, 1.7151006780938237E9, 0.0, 2024-05-07 11:51:18.093
94.0, -101.2895804499276, 7020.882397667039, -1138.9622221556492, 141.3850478748791, 0.0, 1.0240000486373901, 0.04800000227987766, 0.0, 0.0, 0.0, 0.0, 0.0, 1.7151006781211739E9, 0.0, 2024-05-07 11:51:18.121
94.0, 3.988603302743286, 7246.1216123984195, -1098.06641614018, 60.70792603073642, 0.0, 1.0240000486373901, 0.04800000227987766, 0.0, 0.0, 0.0, 0.0, 0.0, 1.7151006781211896E9, 0.0, 2024-05-07 11:51:18.121
95.0, 23.791373568121344, 7471.775956024881, -991.9878937969916, 42.81250474276021, 0.0, 1.0240000486373901, 0.04800000227987766, 0.0, 0.0, 0.0, 0.0, 0.0, 1.7151006781216843E9, 0.0, 2024-05-07 11:51:18.121
95.0, -65.14344737818465, 7564.489945876412, -1122.0092556565069, 123.10067699151114, 0.0, 1.0240000486373901, 0.04800000227987766, 0.0, 0.0, 0.0, 0.0, 0.0, 1.7151006781217053E9, 0.0, 2024-05-07 11:51:18.121
96.0, -31.678822574671358, 7615.012254377827, -1053.5503869676031, 94.20620993385091, 0.0, 1.0240000486373901, 0.04800000227987766, 0.0, 0.0, 0.0, 0.0, 0.0, 1.7151006781229155E9, 0.0, 2024-05-07 11:51:18.122
96.0, 48.98707956960425, 7499.062266101595, -945.0521493530832, 20.31700650928542, 0.0, 1.0240000486373901, 0.04800000227987766, 0.0, 0.0, 0.0, 0.0, 0.0, 1.7151006781229384E9, 0.0, 2024-05-07 11:51:18.122
97.0, -73.71529807662591, 7682.824120374396, -1084.5429379004054, 105.87095789564773, 0.0, 1.0240000486373901, 0.04800000227987766, 0.0, 0.0, 0.0, 0.0, 0.0, 1.715100678151554E9, 0.0, 2024-05-07 11:51:18.151
97.0, -70.31946891685948, 7557.817964355461, -1130.72696245322, 114.46898789377883, 0.0, 1.0240000486373901, 0.04800000227987766, 0.0, 0.0, 0.0, 0.0, 0.0, 1.7151006781515808E9, 0.0, 2024-05-07 11:51:18.151
98.0, 30.253920691553503, 7415.90559058683, -981.8527649170719, 34.06487874640152, 0.0, 1.0240000486373901, 0.04800000227987766, 0.0, 0.0, 0.0, 0.0, 0.0, 1.7151006781516354E9, 0.0, 2024-05-07 11:51:18.151
98.0, -50.08661015657708, 7362.974786513951, -1066.5016605141573, 77.5748748308979, 0.0, 1.0240000486373901, 0.04800000227987766, 0.0, 0.0, 0.0, 0.0, 0.0, 1.7151006781516435E9, 0.0, 2024-05-07 11:51:18.151
99.0, -121.17462851433083, 7541.512000548653, -1160.8219373966567, 126.70220064884052, 0.0, 1.0240000486373901, 0.04800000227987766, 0.0, 0.0, 0.0, 0.0, 0.0, 1.715100678181303E9, 0.0, 2024-05-07 11:51:18.181
99.0, -52.274451630655676, 7736.966652032919, -1050.921237298753, 67.36868785182014, 0.0, 1.0240000486373901, 0.04800000227987766, 0.0, 0.0, 0.0, 0.0, 0.0, 1.7151006781813233E9, 0.0, 2024-05-07 11:51:18.181
100.0, -28.241854515392333, 7963.746705546044, -1003.6189826591872, 50.273605154361576, 0.0, 1.0240000486373901, 0.04800000227987766, 0.0, 0.0, 0.0, 0.0, 0.0, 1.715100678181713E9, 0.0, 2024-05-07 11:51:18.181
100.0, -105.56428609928116, 8089.233438709285, -1144.7216680874117, 129.51834531547502, 0.0, 1.0240000486373901, 0.04800000227987766, 0.0, 0.0, 0.0, 0.0, 0.0, 1.7151006781817296E9, 0.0, 2024-05-07 11:51:18.181
0.0, -81.21005758782849, 68.55610608775169, -96.3603923083283, 37.55981525499374, 0.0, 1.0240000486373901, 0.04800000227987766, 0.0, 0.0, 0.0, 0.0, 0.0, 1.7151006781823063E9, 0.0, 2024-05-07 11:51:18.182
1.0, 7.242316264193505, -41.20808766176924, 59.42514034593478, -47.93429773207754, 0.0, 1.0400000493973494, 0.04800000227987766, 0.0, 0.0, 0.0, 0.0, 0.0, 1.715100678183244E9, 0.0, 2024-05-07 11:51:18.183
1.0, -119.98160042846575, 134.66257770452648, -91.57706026500091, 37.30176215805113, 0.0, 1.0400000493973494, 0.04800000227987766, 0.0, 0.0, 0.0, 0.0, 0.0, 1.7151006781832533E9, 0.0, 2024-05-07 11:51:18.183
2.0, -155.6864253054373, -16.616375503130257, -116.34641767153516, 35.241077282465994, 0.0, 1.0400000493973494, 0.04800000227987766, 0.0, 0.0, 0.0, 0.0, 0.0, 1.7151006781838982E9, 0.0, 2024-05-07 11:51:18.183
2.0, -16.023601360153407, -157.59751418279484, 39.55879178130999, -28.041769867762923, 0.0, 1.0400000493973494, 0.04800000227987766, 0.0, 0.0, 0.0, 0.0, 0.0, 1.7151006781839163E9, 0.0, 2024-05-07 11:51:18.183
3.0, -89.52011528937146, -202.79420514730737, -58.377968358341604, 13.67681413795799, 0.0, 1.0400000493973494, 0.04800000227987766, 0.0, 0.0, 0.0, 0.0, 0.0, 1.715100678241773E9, 0.0, 2024-05-07 11:51:18.241
3.0, -138.46792590944096, -36.22841087076813, -128.62076932610944, 78.38830307126045, 0.0, 1.0400000493973494, 0.04800000227987766, 0.0, 0.0, 0.0, 0.0, 0.0, 1.7151006782418141E9, 0.0, 2024-05-07 11:51:18.241
4.0, -53.108449320774525, 180.74188505858183, -15.47383606666699, -8.590550198219717, 0.0, 1.0400000493973494, 0.04800000227987766, 0.0, 0.0, 0.0, 0.0, 0.0, 1.7151006782419252E9, 0.0, 2024-05-07 11:51:18.241
4.0, -50.284824854228646, 395.1802687179297, 16.491088854614645, -25.40514039900154, 0.0, 1.0400000493973494, 0.04800000227987766, 0.0, 0.0, 0.0, 0.0, 0.0, 1.7151006782419395E9, 0.0, 2024-05-07 11:51:18.241
5.0, -136.13048843713477, 506.32074565114453, -118.58661774499342, 71.89209684822708, 0.0, 1.0400000493973494, 0.04800000227987766, 0.0, 0.0, 0.0, 0.0, 0.0, 1.715100678242656E9, 0.0, 2024-05-07 11:51:18.242
5.0, -89.63605218799785, 545.9375058817677, -71.55363590223715, 50.137098805978894, 0.0, 1.0400000493973494, 0.04800000227987766, 0.0, 0.0, 0.0, 0.0, 0.0, 1.7151006782426848E9, 0.0, 2024-05-07 11:51:18.242
6.0, -1.5127895320765674, 427.7660170318559, 66.11956126661971, -48.02779523096979, 0.0, 1.0400000493973494, 0.04800000227987766, 0.0, 0.0, 0.0, 0.0, 0.0, 1.7151006782433188E9, 0.0, 2024-05-07 11:51:18.243
6.0, -129.53330491529778, 625.2420844421722, -96.48754890682176, 35.577668278478086, 0.0, 1.0400000493973494, 0.04800000227987766, 0.0, 0.0, 0.0, 0.0, 0.0, 1.7151006782433448E9, 0.0, 2024-05-07 11:51:18.243
7.0, -140.13592128967866, 495.8789449748583, -122.59205059753731, 49.16098491754383, 0.0, 1.0400000493973494, 0.04800000227987766, 0.0, 0.0, 0.0, 0.0, 0.0, 1.7151006782439053E9, 0.0, 2024-05-07 11:51:18.243
7.0, -175.66497086873278, 399.42879506759346, 92.95708334865049, -24.9750519040972, 0.0, 1.0400000493973494, 0.04800000227987766, 0.0, 0.0, 0.0, 0.0, 0.0, 1.7151006782439268E9, 0.0, 2024-05-07 11:51:18.243
8.0, -394.62863347446546, 418.62570154014975, 60.52467093290761, 9.484386287629604, 0.0, 1.0400000493973494, 0.04800000227987766, 0.0, 0.0, 0.0, 0.0, 0.0, 1.7151006782448876E9, 0.0, 2024-05-07 11:51:18.244
8.0, -403.245362972375, 583.8750510322861, -63.191219601314515, 52.71762977540493, 0.0, 1.0400000493973494, 0.04800000227987766, 0.0, 0.0, 0.0, 0.0, 0.0, 1.7151006782449195E9, 0.0, 2024-05-07 11:51:18.244
9.0, -608.4518035911024, 681.916528370697, 1.7110042297281325, 1.0920507870614529, 0.0, 1.0400000493973494, 0.04800000227987766, 0.0, 0.0, 0.0, 0.0, 0.0, 1.7151006782711327E9, 0.0, 2024-05-07 11:51:18.271
9.0, -639.1189832277596, 465.5913651837036, 57.177460472565144, -19.36894187051803, 0.0, 1.0400000493973494, 0.04800000227987766, 0.0, 0.0, 0.0, 0.0, 0.0, 1.7151006782711508E9, 0.0, 2024-05-07 11:51:18.271
10.0, -706.8747507249936, 557.4900568448938, -123.60556348552927, 72.71487483847886, 0.0, 1.0400000493973494, 0.04800000227987766, 0.0, 0.0, 0.0, 0.0, 0.0, 1.715100678271946E9, 0.0, 2024-05-07 11:51:18.271
10.0, -697.0911724409088, 556.8879329520278, -37.91323580080643, 24.07747591473162, 0.0, 1.0400000493973494, 0.04800000227987766, 0.0, 0.0, 0.0, 0.0, 0.0, 1.715100678271961E9, 0.0, 2024-05-07 11:51:18.271
