%OpenBCI Raw EXG Data
%Number of channels = 4
%Sample Rate = 200 Hz
%Board = OpenBCI_GUI$BoardGanglionNative
Sample Index, EXG Channel 0, EXG Channel 1, EXG Channel 2, EXG Channel 3, Accel Channel 0, Accel Channel 1, Accel Channel 2, Other, Other, Other, Other, Other, Timestamp, Other, Timestamp (Formatted)
0.0, 56.43135043140501, -39.442854882683605, 18.222662534099072, 53.80968056246638, 0.0, 0.0, 0.0, 0.0, 0.0, 0.0, 0.0, 0.0, 1.7151005111010811E9, 0.0, 2024-05-07 11:48:31.101
1.0, 34.93440548609942, -57.955359663348645, -7.04784146649763, 12.610942650586367, 0.0, 1.0240000486373901, 0.0, 0.0, 0.0, 0.0, 0.0, 0.0, 1.7151005111018949E9, 0.0, 2024-05-07 11:48:31.101
1.0, -44.104640177451074, 40.45636777067557, 59.27180444775149, -27.656560172326863, 0.0, 1.0240000486373901, 0.0, 0.0, 0.0, 0.0, 0.0, 0.0, 1.7151005111019108E9, 0.0, 2024-05-07 11:48:31.101
2.0, 21.437106546014547, 14.131211982574314, 44.626356221269816, 35.01294338516891, 0.01600000075995922, 1.0240000486373901, 0.0, 0.0, 0.0, 0.0, 0.0, 0.0, 1.7151005111317017E9, 0.0, 2024-05-07 11:48:31.131
2.0, 53.03926117159426, -88.39814530266449, -10.443670626264066, 36.19849167112261, 0.01600000075995922, 1.0240000486373901, 0.0, 0.0, 0.0, 0.0, 0.0, 0.0, 1.7151005111317387E9, 0.0, 2024-05-07 11:48:31.131
3.0, -20.90978065226227, 0.30854174634441733, 51.937860634643584, -17.147441296838224, 0.01600000075995922, 1.0240000486373901, 0.0, 0.0, 0.0, 0.0, 0.0, 0.0, 1.7151005111318169E9, 0.0, 2024-05-07 11:48:31.131
3.0, -22.52541743312031, 59.27554434770718, 65.06864937907085, -1.7540130792185664, 0.01600000075995922, 1.0240000486373901, 0.0, 0.0, 0.0, 0.0, 0.0, 0.0, 1.7151005111318245E9, 0.0, 2024-05-07 11:48:31.131
4.0, 63.821392743848264, -77.75065012881532, 2.328087722416967, 49.314320815727115, 0.01600000075995922, 1.0240000486373901, 0.0, 0.0, 0.0, 0.0, 0.0, 0.0, 1.7151005111322815E9, 0.0, 2024-05-07 11:48:31.132
4.0, 14.09568293299526, -37.827218101825565, 20.230988810304552, -2.973220464773476, 0.01600000075995922, 1.0240000486373901, 0.0, 0.0, 0.0, 0.0, 0.0, 0.0, 1.715100511132303E9, 0.0, 2024-05-07 11:48:31.132
5.0, -55.19718344602734, 52.48762592813, 84.74426304595545, -23.32575602363795, 0.01600000075995922, 1.0240000486373901, 0.0, 0.0, 0.0, 0.0, 0.0, 0.0, 1.7151005111329813E9, 0.0, 2024-05-07 11:48:31.132
5.0, 54.84563285019249, -22.976075377780944, 26.581338935066015, 53.738622463308275, 0.01600000075995922, 1.0240000486373901, 0.0, 0.0, 0.0, 0.0, 0.0, 0.0, 1.7151005111330004E9, 0.0, 2024-05-07 11:48:31.133
6.0, 34.810988787561655, -55.35986909409985, 3.83152750460431, 21.582962644286454, 0.01600000075995922, 1.0240000486373901, 0.0, 0.0, 0.0, 0.0, 0.0, 0.0, 1.715100511161533E9, 0.0, 2024-05-07 11:48:31.161
6.0, -50.208156905137, 26.110111540649086, 70.70467861229554, -28.288603264838457, 0.01600000075995922, 1.0240000486373901, 0.0, 0.0, 0.0, 0.0, 0.0, 0.0, 1.7151005111615696E9, 0.0, 2024-05-07 11:48:31.161
7.0, 19.417560569941998, 18.166564034763724, 48.19796067895368, 34.17146589513868, 0.01600000075995922, 1.0240000486373901, 0.0, 0.0, 0.0, 0.0, 0.0, 0.0, 1.7151005111620288E9, 0.0, 2024-05-07 11:48:31.162
7.0, 56.6931434283033, -72.66064628912136, -12.130365506280214, 33.85357439890504, 0.01600000075995922, 1.0240000486373901, 0.0, 0.0, 0.0, 0.0, 0.0, 0.0, 1.7151005111620584E9, 0.0, 2024-05-07 11:48:31.162
8.0, -15.415867617353797, -2.7095575178973377, 43.95691412920132, -3.8483570544049144, 0.01600000075995922, 1.0240000486373901, 0.0, 0.0, 0.0, 0.0, 0.0, 0.0, 1.715100511191152E9, 0.0, 2024-05-07 11:48:31.191
8.0, -28.61771446093917, 48.94594067009166, 65.07612917898223, 8.680307797156274, 0.01600000075995922, 1.0240000486373901, 0.0, 0.0, 0.0, 0.0, 0.0, 0.0, 1.7151005111911774E9, 0.0, 2024-05-07 11:48:31.191
9.0, 64.39733733702451, -48.54203147487715, -1.5352289318107069, 48.00535583123565, 0.01600000075995922, 1.0240000486373901, 0.0, 0.0, 0.0, 0.0, 0.0, 0.0, 1.7151005111914556E9, 0.0, 2024-05-07 11:48:31.191
9.0, 21.485725245438516, -41.15198916243389, 18.383478232193738, 1.2528664851561189, 0.01600000075995922, 1.0240000486373901, 0.0, 0.0, 0.0, 0.0, 0.0, 0.0, 1.7151005111914673E9, 0.0, 2024-05-07 11:48:31.191
10.0, -57.87495181430131, 70.04271632013842, 66.1607001661323, -34.410819492302835, 0.01600000075995922, 1.0240000486373901, -0.04800000227987766, 0.0, 0.0, 0.0, 0.0, 0.0, 1.7151005111921775E9, 0.0, 2024-05-07 11:48:31.192
10.0, 55.52255474217236, -36.35369751928374, 13.357052691746503, 53.43943046685308, 0.01600000075995922, 1.0240000486373901, -0.04800000227987766, 0.0, 0.0, 0.0, 0.0, 0.0, 1.7151005111921947E9, 0.0, 2024-05-07 11:48:31.192
11.0, 35.95165827404708, -63.24731810064986, -2.8479338162578642, 18.591042679734528, 0.01600000075995922, 1.0400000493973494, -0.04800000227987766, 0.0, 0.0, 0.0, 0.0, 0.0, 1.715100511193009E9, 0.0, 2024-05-07 11:48:31.193
11.0, -47.56778753641993, 38.31340509606525, 64.60116188460961, -31.931265821680427, 0.01600000075995922, 1.0400000493973494, -0.04800000227987766, 0.0, 0.0, 0.0, 0.0, 0.0, 1.7151005111930227E9, 0.0, 2024-05-07 11:48:31.193
12.0, 19.529757568612695, 12.496875701937824, 41.443701358977705, 32.013543620705605, 0.0, 1.0400000493973494, -0.04800000227987766, 0.0, 0.0, 0.0, 0.0, 0.0, 1.7151005112210684E9, 0.0, 2024-05-07 11:48:31.221
12.0, 61.323139573447406, -75.47679095575586, -4.706664094235748, 30.016437044367194, 0.0, 1.0400000493973494, -0.04800000227987766, 0.0, 0.0, 0.0, 0.0, 0.0, 1.7151005112210872E9, 0.0, 2024-05-07 11:48:31.221
13.0, -20.363755258731544, 0.4057791451923549, 29.11325120506808, -26.429872986860573, 0.0, 1.0400000493973494, -0.04800000227987766, 0.0, 0.0, 0.0, 0.0, 0.0, 1.715100511222124E9, 0.0, 2024-05-07 11:48:31.222
13.0, -27.73509807139635, 59.33538274699822, 52.48014612821862, -7.098330115899444, 0.0, 1.0400000493973494, -0.04800000227987766, 0.0, 0.0, 0.0, 0.0, 0.0, 1.715100511222156E9, 0.0, 2024-05-07 11:48:31.222
14.0, 64.52449393551797, -60.1207617376931, 2.21215082379058, 51.274028392508626, 0.0, 1.0400000493973494, -0.04800000227987766, 0.0, 0.0, 0.0, 0.0, 0.0, 1.715100511281248E9, 0.0, 2024-05-07 11:48:31.281
14.0, 9.140315491706133, -37.93193530058488, 23.619338170159608, 7.999646005220711, 0.0, 1.0400000493973494, -0.04800000227987766, 0.0, 0.0, 0.0, 0.0, 0.0, 1.7151005112812629E9, 0.0, 2024-05-07 11:48:31.281
15.0, -52.69519037567079, 69.36579442815855, 72.24177749408409, -23.669826819561422, 0.0, 1.0400000493973494, -0.04800000227987766, 0.0, 0.0, 0.0, 0.0, 0.0, 1.7151005112816217E9, 0.0, 2024-05-07 11:48:31.281
15.0, 59.86457859072834, -15.05870717158541, 23.97088876599446, 51.86493258550763, 0.0, 1.0400000493973494, -0.04800000227987766, 0.0, 0.0, 0.0, 0.0, 0.0, 1.715100511281634E9, 0.0, 2024-05-07 11:48:31.281
16.0, 36.99883026164025, -50.52043855143711, 6.4606771734543145, 18.8603154765442, 0.0, 1.0400000493973494, -0.04800000227987766, 0.0, 0.0, 0.0, 0.0, 0.0, 1.715100511282081E9, 0.0, 2024-05-07 11:48:31.282
16.0, -45.4285647617653, 48.325117277447134, 61.957052615936846, -20.644247755408287, 0.0, 1.0400000493973494, -0.04800000227987766, 0.0, 0.0, 0.0, 0.0, 0.0, 1.7151005112820923E9, 0.0, 2024-05-07 11:48:31.282
17.0, 19.70927276648581, 25.15269715199247, 52.86535582365468, 32.25289721786976, 0.0, 1.0400000493973494, -0.04800000227987766, 0.0, 0.0, 0.0, 0.0, 0.0, 1.715100511283223E9, 0.0, 2024-05-07 11:48:31.283
17.0, 52.519415077753365, -58.329349658917636, -10.6905040233396, 33.87975369859487, 0.0, 1.0400000493973494, -0.04800000227987766, 0.0, 0.0, 0.0, 0.0, 0.0, 1.7151005112832415E9, 0.0, 2024-05-07 11:48:31.283
18.0, -22.820869529619813, -30.859784484375268, 34.244393944274634, -20.853682152926922, 0.0, 1.0400000493973494, -0.04800000227987766, 0.0, 0.0, 0.0, 0.0, 0.0, 1.7151005112836585E9, 0.0, 2024-05-07 11:48:31.283
18.0, -29.466671750880778, 64.80685638217255, 70.46906491508707, -1.0359522877261043, 0.0, 1.0400000493973494, -0.04800000227987766, 0.0, 0.0, 0.0, 0.0, 0.0, 1.715100511283676E9, 0.0, 2024-05-07 11:48:31.283
19.0, 68.27187369111925, -42.51705264626071, 1.7409234293736517, 57.699176516383886, 0.0, 1.0400000493973494, -0.04800000227987766, 0.0, 0.0, 0.0, 0.0, 0.0, 1.7151005112849355E9, 0.0, 2024-05-07 11:48:31.284
19.0, 18.05249708611518, -46.91143509419635, 4.8113812929950655, -0.33659099601209164, 0.0, 1.0400000493973494, -0.04800000227987766, 0.0, 0.0, 0.0, 0.0, 0.0, 1.7151005112849708E9, 0.0, 2024-05-07 11:48:31.284
21.0, -0.9985532881692052, -73.20667168265209, -22.445009584072977, -41.74102340545505, 0.0, 1.0240000486373901, -0.04800000227987766, 0.0, 0.0, 0.0, 0.0, 0.0, 1.7151005113111832E9, 0.0, 2024-05-07 11:48:31.311
21.0, -87.44634076394141, 1.0378222377039492, 58.47520575718954, -87.23690636642277, 0.0, 1.0240000486373901, -0.04800000227987766, 0.0, 0.0, 0.0, 0.0, 0.0, 1.7151005113112063E9, 0.0, 2024-05-07 11:48:31.311
22.0, -16.49295880459249, -15.339199668262154, 33.56747205229476, -23.613728320226073, 0.01600000075995922, 1.0240000486373901, -0.04800000227987766, 0.0, 0.0, 0.0, 0.0, 0.0, 1.7151005113413155E9, 0.0, 2024-05-07 11:48:31.341
22.0, 21.646540943533182, -97.2878874973394, -4.456090797204524, -25.255544400773942, 0.01600000075995922, 1.0240000486373901, -0.04800000227987766, 0.0, 0.0, 0.0, 0.0, 0.0, 1.715100511341352E9, 0.0, 2024-05-07 11:48:31.341
23.0, -50.04734120704234, -27.93892261898145, 14.434143878985196, -68.3279721904546, 0.01600000075995922, 1.0240000486373901, -0.04800000227987766, 0.0, 0.0, 0.0, 0.0, 0.0, 1.7151005113414938E9, 0.0, 2024-05-07 11:48:31.341
23.0, -60.63125808164477, 22.624524781946093, 54.47725270455703, -60.960369277745485, 0.01600000075995922, 1.0240000486373901, -0.04800000227987766, 0.0, 0.0, 0.0, 0.0, 0.0, 1.7151005113415053E9, 0.0, 2024-05-07 11:48:31.341
24.0, 29.881800645962358, -75.65630615362898, -18.30494033312425, -6.155875327065587, 0.01600000075995922, 1.0240000486373901, -0.04800000227987766, 0.0, 0.0, 0.0, 0.0, 0.0, 1.7151005113420475E9, 0.0, 2024-05-07 11:48:31.342
24.0, -19.148287773132324, -51.34695644164458, 14.033974583726376, -39.82245472818613, 0.01600000075995922, 1.0240000486373901, -0.04800000227987766, 0.0, 0.0, 0.0, 0.0, 0.0, 1.7151005113420565E9, 0.0, 2024-05-07 11:48:31.342
25.0, -89.98199293389916, 25.066679453011602, 84.23189675202593, -81.30168513674289, 0.01600000075995922, 1.0240000486373901, -0.04800000227987766, 0.0, 0.0, 0.0, 0.0, 0.0, 1.7151005113427029E9, 0.0, 2024-05-07 11:48:31.342
25.0, 11.66848786175251, -51.3394766417332, 1.449211232829839, -7.965986905619502, 0.01600000075995922, 1.0240000486373901, -0.04800000227987766, 0.0, 0.0, 0.0, 0.0, 0.0, 1.7151005113427114E9, 0.0, 2024-05-07 11:48:31.342
26.0, -3.863316654227674, -76.25095024658367, -8.345586751122028, -45.264009163714945, 0.01600000075995922, 1.0240000486373901, -0.04800000227987766, 0.0, 0.0, 0.0, 0.0, 0.0, 1.715100511343691E9, 0.0, 2024-05-07 11:48:31.343
26.0, -84.56661779806018, 18.28998073330149, 50.53539815125987, -86.94893406983465, 0.01600000075995922, 1.0240000486373901, -0.04800000227987766, 0.0, 0.0, 0.0, 0.0, 0.0, 1.7151005113437028E9, 0.0, 2024-05-07 11:48:31.343
27.0, -13.097129644826055, -10.069680630695075, 33.395436654333025, -27.873474369756877, 0.01600000075995922, 1.0240000486373901, -0.04800000227987766, 0.0, 0.0, 0.0, 0.0, 0.0, 1.7151005113710833E9, 0.0, 2024-05-07 11:48:31.371
27.0, 20.311396659351885, -84.93873784365132, -8.027695254888386, -24.036337015219033, 0.01600000075995922, 1.0240000486373901, -0.04800000227987766, 0.0, 0.0, 0.0, 0.0, 0.0, 1.7151005113711076E9, 0.0, 2024-05-07 11:48:31.371
28.0, -51.173051093705, -23.458522472064942, 29.11699110502377, -69.49856087658554, 0.01600000075995922, 1.0240000486373901, -0.04800000227987766, 0.0, 0.0, 0.0, 0.0, 0.0, 1.7151005113720455E9, 0.0, 2024-05-07 11:48:31.372
28.0, -60.545240382663906, 23.52584067126736, 46.18215460283682, -67.86048469599336, 0.01600000075995922, 1.0240000486373901, -0.04800000227987766, 0.0, 0.0, 0.0, 0.0, 0.0, 1.7151005113720624E9, 0.0, 2024-05-07 11:48:31.372
29.0, 27.77623697090894, -79.24661011109129, -5.783755281474441, -5.284478637389839, 0.01600000075995922, 1.0240000486373901, -0.04800000227987766, 0.0, 0.0, 0.0, 0.0, 0.0, 1.715100511401307E9, 0.0, 2024-05-07 11:48:31.401
29.0, -17.012804898433387, -45.127502815332264, 16.2853943570517, -44.029842178337276, 0.01600000075995922, 1.0240000486373901, -0.04800000227987766, 0.0, 0.0, 0.0, 0.0, 0.0, 1.7151005114013207E9, 0.0, 2024-05-07 11:48:31.401
30.0, -90.88330882322043, 40.34417077200487, 71.52745660254732, -81.57095793355256, 0.01600000075995922, 1.0240000486373901, -0.04800000227987766, 0.0, 0.0, 0.0, 0.0, 0.0, 1.7151005114015238E9, 0.0, 2024-05-07 11:48:31.401
30.0, 19.133328173309565, -63.38569439901039, 11.236529416870326, -0.0523585993796587, 0.01600000075995922, 1.0240000486373901, -0.04800000227987766, 0.0, 0.0, 0.0, 0.0, 0.0, 1.7151005114015343E9, 0.0, 2024-05-07 11:48:31.401
31.0, -4.637475945055485, -79.45978440856561, -4.411211997736245, -32.9410388097167, 0.01600000075995922, 1.0240000486373901, -0.04800000227987766, 0.0, 0.0, 0.0, 0.0, 0.0, 1.7151005114022665E9, 0.0, 2024-05-07 11:48:31.402
31.0, -78.31350507214665, 7.649965359363705, 52.22209303127602, -80.72200064361095, 0.01600000075995922, 1.0240000486373901, -0.04800000227987766, 0.0, 0.0, 0.0, 0.0, 0.0, 1.7151005114022768E9, 0.0, 2024-05-07 11:48:31.402
32.0, -13.646894938312471, 6.976783367339522, 33.776906449813396, -16.48547900468111, 0.01600000075995922, 1.0240000486373901, -0.04800000227987766, 0.0, 0.0, 0.0, 0.0, 0.0, 1.7151005114030457E9, 0.0, 2024-05-07 11:48:31.403
32.0, 12.999892245978117, -120.71836071973667, -20.193589810747653, -30.813035734929144, 0.01600000075995922, 1.0240000486373901, -0.04800000227987766, 0.0, 0.0, 0.0, 0.0, 0.0, 1.7151005114030564E9, 0.0, 2024-05-07 11:48:31.403
33.0, -53.58902646508068, -17.55322044203058, 30.511973788496107, -70.32507876679301, 0.01600000075995922, 1.0240000486373901, -0.04800000227987766, 0.0, 0.0, 0.0, 0.0, 0.0, 1.71510051143109E9, 0.0, 2024-05-07 11:48:31.431
33.0, -58.4733358072117, 45.61742970952764, 76.12005374813452, -53.62642546463758, 0.01600000075995922, 1.0240000486373901, -0.04800000227987766, 0.0, 0.0, 0.0, 0.0, 0.0, 1.7151005114311085E9, 0.0, 2024-05-07 11:48:31.431
34.0, 31.994844120927155, -89.55003448901698, -16.378891855943948, -5.766925731673837, 0.01600000075995922, 1.0240000486373901, -0.04800000227987766, 0.0, 0.0, 0.0, 0.0, 0.0, 1.715100511431986E9, 0.0, 2024-05-07 11:48:31.431
34.0, -26.15686029009521, -75.28605605801567, 4.272835699375719, -53.05422077141702, 0.01600000075995922, 1.0240000486373901, -0.04800000227987766, 0.0, 0.0, 0.0, 0.0, 0.0, 1.7151005114320073E9, 0.0, 2024-05-07 11:48:31.432
35.0, -88.97221994586289, 46.42524809995666, 69.06660243170336, -81.15956893842667, 0.01600000075995922, 1.0240000486373901, -0.04800000227987766, 0.0, 0.0, 0.0, 0.0, 0.0, 1.7151005114611285E9, 0.0, 2024-05-07 11:48:31.461
35.0, 17.940300087444484, -48.42235467629507, 21.08368600020185, -5.179761438630521, 0.01600000075995922, 1.0240000486373901, -0.04800000227987766, 0.0, 0.0, 0.0, 0.0, 0.0, 1.7151005114611492E9, 0.0, 2024-05-07 11:48:31.461
36.0, 2.1504424745216966, -85.54834153642878, 4.037222002167255, -33.77877639979124, 0.01600000075995922, 1.0240000486373901, -0.04800000227987766, 0.0, 0.0, 0.0, 0.0, 0.0, 1.7151005114618504E9, 0.0, 2024-05-07 11:48:31.461
36.0, -88.57579055055976, -0.46561754448339343, 52.89901492325589, -86.63852237351239, 0.01600000075995922, 1.0240000486373901, -0.04800000227987766, 0.0, 0.0, 0.0, 0.0, 0.0, 1.7151005114618728E9, 0.0, 2024-05-07 11:48:31.461
37.0, -8.571850698441267, 18.106725635472685, 24.4009772608988, -18.340469382703304, 0.01600000075995922, 1.0240000486373901, -0.04800000227987766, 0.0, 0.0, 0.0, 0.0, 0.0, 1.7151005114622111E9, 0.0, 2024-05-07 11:48:31.462
37.0, 21.33986914716661, -80.56679479544982, -19.688703316729516, -20.93222005199641, 0.01600000075995922, 1.0240000486373901, -0.04800000227987766, 0.0, 0.0, 0.0, 0.0, 0.0, 1.7151005114622808E9, 0.0, 2024-05-07 11:48:31.462
38.0, -53.79846086259931, -21.07620620029047, 20.223509010393173, -69.6631164746359, 0.01600000075995922, 1.0240000486373901, -0.04800000227987766, 0.0, 0.0, 0.0, 0.0, 0.0, 1.7151005114633827E9, 0.0, 2024-05-07 11:48:31.463
38.0, -63.3277259496972, 10.174397829454392, 48.47097337571904, -61.12492487579584, 0.01600000075995922, 1.0240000486373901, -0.04800000227987766, 0.0, 0.0, 0.0, 0.0, 0.0, 1.715100511463407E9, 0.0, 2024-05-07 11:48:31.463
39.0, 27.43590607494116, -93.00570204807445, -5.9744901792146266, -7.805171207524836, 0.01600000075995922, 1.0240000486373901, -0.04800000227987766, 0.0, 0.0, 0.0, 0.0, 0.0, 1.7151005114918768E9, 0.0, 2024-05-07 11:48:31.491
39.0, -21.975652139633894, -57.540230768267065, 0.11032704869285226, -61.24834157433361, 0.01600000075995922, 1.0240000486373901, -0.04800000227987766, 0.0, 0.0, 0.0, 0.0, 0.0, 1.71510051149191E9, 0.0, 2024-05-07 11:48:31.491
40.0, -90.93940732255578, 46.91517499415204, 58.46772595727816, -90.49435922782868, 0.01600000075995922, 1.0240000486373901, -0.04800000227987766, 0.0, 0.0, 0.0, 0.0, 0.0, 1.715100511492206E9, 0.0, 2024-05-07 11:48:31.492
40.0, 15.834736412391067, -56.58281637961045, 22.852658679243177, 0.8526971898972988, 0.01600000075995922, 1.0240000486373901, -0.04800000227987766, 0.0, 0.0, 0.0, 0.0, 0.0, 1.715100511492227E9, 0.0, 2024-05-07 11:48:31.492
41.0, -7.378822612576187, -87.40707181440666, -11.831173509825021, -50.38393220305443, 0.01600000075995922, 1.008000047877431, -0.04800000227987766, 0.0, 0.0, 0.0, 0.0, 0.0, 1.7151005114931436E9, 0.0, 2024-05-07 11:48:31.493
41.0, -78.02927267551422, 24.808626356069, 48.8561830711551, -87.28178516589105, 0.01600000075995922, 1.008000047877431, -0.04800000227987766, 0.0, 0.0, 0.0, 0.0, 0.0, 1.7151005114931622E9, 0.0, 2024-05-07 11:48:31.493
42.0, -19.024871074594557, -13.794620986562222, 27.303139626514167, -18.314290083013475, 0.0, 1.008000047877431, -0.04800000227987766, 0.0, 0.0, 0.0, 0.0, 0.0, 1.715100511520966E9, 0.0, 2024-05-07 11:48:31.520
42.0, 12.04621775727719, -87.80724110966548, -19.378291620407254, -22.312243135645986, 0.0, 1.008000047877431, -0.04800000227987766, 0.0, 0.0, 0.0, 0.0, 0.0, 1.7151005115209825E9, 0.0, 2024-05-07 11:48:31.520
43.0, -54.527741353958845, -30.313759090844542, 24.217722163069993, -76.23412069678307, 0.0, 1.008000047877431, -0.04800000227987766, 0.0, 0.0, 0.0, 0.0, 0.0, 1.7151005115219193E9, 0.0, 2024-05-07 11:48:31.521
43.0, -62.69194295722991, 40.76303956704214, 56.28362438315526, -55.45149664301425, 0.0, 1.008000047877431, -0.04800000227987766, 0.0, 0.0, 0.0, 0.0, 0.0, 1.7151005115219328E9, 0.0, 2024-05-07 11:48:31.521
44.0, 28.082908767275512, -80.56305489549413, -13.020461695734411, -8.209080402739346, 0.0, 1.008000047877431, -0.04800000227987766, 0.0, 0.0, 0.0, 0.0, 0.0, 1.7151005115513008E9, 0.0, 2024-05-07 11:48:31.551
44.0, -17.113782197237015, -60.008564739022404, 10.68676412338391, -47.51916883699596, 0.0, 1.008000047877431, -0.04800000227987766, 0.0, 0.0, 0.0, 0.0, 0.0, 1.7151005115513172E9, 0.0, 2024-05-07 11:48:31.551
45.0, -95.90225456375629, 39.24090028507635, 75.10654086014256, -98.16115413699299, 0.0, 1.008000047877431, -0.04800000227987766, 0.0, 0.0, 0.0, 0.0, 0.0, 1.715100511581005E9, 0.0, 2024-05-07 11:48:31.581
45.0, 21.190273148939013, -45.927841405849904, -2.006456326227635, -4.637475945055485, 0.0, 1.008000047877431, -0.04800000227987766, 0.0, 0.0, 0.0, 0.0, 0.0, 1.7151005115810218E9, 0.0, 2024-05-07 11:48:31.581
46.0, -5.112443239428103, -98.48091558320448, -7.608826459851116, -38.842600939795375, 0.0, 1.008000047877431, -0.04800000227987766, 0.0, 0.0, 0.0, 0.0, 0.0, 1.7151005115816877E9, 0.0, 2024-05-07 11:48:31.581
46.0, -77.21771438512951, 9.321700639557093, 64.70213918341324, -85.30337808933109, 0.0, 1.008000047877431, -0.04800000227987766, 0.0, 0.0, 0.0, 0.0, 0.0, 1.7151005115817018E9, 0.0, 2024-05-07 11:48:31.581
47.0, -14.948380122892559, 10.499769125599414, 19.58772601792589, -19.552196968346834, 0.0, 1.008000047877431, -0.04800000227987766, 0.0, 0.0, 0.0, 0.0, 0.0, 1.7151005115821583E9, 0.0, 2024-05-07 11:48:31.582
47.0, 18.763078077696264, -109.69687555031851, -17.773874539416283, -35.585148078389466, 0.0, 1.008000047877431, -0.04800000227987766, 0.0, 0.0, 0.0, 0.0, 0.0, 1.7151005115821695E9, 0.0, 2024-05-07 11:48:31.582
48.0, -50.855159597471356, -42.689088044222444, 25.010580953676254, -80.09369745105505, 0.0, 1.008000047877431, -0.04800000227987766, 0.0, 0.0, 0.0, 0.0, 0.0, 1.7151005115830076E9, 0.0, 2024-05-07 11:48:31.583
48.0, -67.25836080312729, 26.77955363271758, 43.94943432928994, -53.49178906623274, 0.0, 1.008000047877431, -0.04800000227987766, 0.0, 0.0, 0.0, 0.0, 0.0, 1.7151005115830245E9, 0.0, 2024-05-07 11:48:31.583
49.0, 34.788549387827516, -76.91665243869647, -11.947110408451408, -4.551458246074617, 0.0, 1.008000047877431, -0.04800000227987766, 0.0, 0.0, 0.0, 0.0, 0.0, 1.7151005115835E9, 0.0, 2024-05-07 11:48:31.583
49.0, -18.647141179069877, -47.60705648595467, 9.624632535967976, -55.5075951423496, 0.0, 1.008000047877431, -0.04800000227987766, 0.0, 0.0, 0.0, 0.0, 0.0, 1.7151005115835152E9, 0.0, 2024-05-07 11:48:31.583
50.0, -91.18250081967562, 56.721192677970976, 57.603809067513794, -76.31265859585255, 0.0, 1.008000047877431, -0.04800000227987766, 0.0, 0.0, 0.0, 0.0, 0.0, 1.715100511584438E9, 0.0, 2024-05-07 11:48:31.584
50.0, 13.067210445180535, -59.86644854070619, 8.540061548817903, -3.010619464330375, 0.0, 1.008000047877431, -0.04800000227987766, 0.0, 0.0, 0.0, 0.0, 0.0, 1.7151005115844567E9, 0.0, 2024-05-07 11:48:31.584
51.0, 1.525879181921482, -76.08639464853331, -12.29118120437488, -38.18437854759395, 0.0, 1.0240000486373901, -0.04800000227987766, 0.0, 0.0, 0.0, 0.0, 0.0, 1.7151005116114748E9, 0.0, 2024-05-07 11:48:31.611
51.0, -82.30771822482347, 27.98006151849404, 58.348049158696085, -80.99127344042063, 0.0, 1.0240000486373901, -0.04800000227987766, 0.0, 0.0, 0.0, 0.0, 0.0, 1.7151005116115043E9, 0.0, 2024-05-07 11:48:31.611
52.0, -16.02921121008694, -4.399992297869176, 32.77087336173281, -17.525171192362905, 0.03200000151991844, 1.0240000486373901, -0.04800000227987766, 0.0, 0.0, 0.0, 0.0, 0.0, 1.7151005116118624E9, 0.0, 2024-05-07 11:48:31.611
52.0, 23.052743326872587, -100.77347425604239, -22.34777218522504, -22.824609429575503, 0.03200000151991844, 1.0240000486373901, -0.04800000227987766, 0.0, 0.0, 0.0, 0.0, 0.0, 1.715100511611878E9, 0.0, 2024-05-07 11:48:31.611
53.0, -52.20152358151972, -27.62103112274781, 45.38929581223056, -74.3305116193369, 0.03200000151991844, 1.0240000486373901, -0.04800000227987766, 0.0, 0.0, 0.0, 0.0, 0.0, 1.7151005116410997E9, 0.0, 2024-05-07 11:48:31.641
53.0, -61.97014226578176, 22.560946482699364, 39.28577908454463, -59.12781829945743, 0.03200000151991844, 1.0240000486373901, -0.04800000227987766, 0.0, 0.0, 0.0, 0.0, 0.0, 1.71510051164112E9, 0.0, 2024-05-07 11:48:31.641
54.0, 34.48187759146094, -78.29667552234605, -1.6436860305257142, -11.126202368177474, 0.03200000151991844, 1.0240000486373901, -0.04800000227987766, 0.0, 0.0, 0.0, 0.0, 0.0, 1.715100511641766E9, 0.0, 2024-05-07 11:48:31.641
54.0, -18.692019978538156, -41.043532063718885, 30.42221618955955, -48.095113430172205, 0.03200000151991844, 1.0240000486373901, -0.04800000227987766, 0.0, 0.0, 0.0, 0.0, 0.0, 1.7151005116417897E9, 0.0, 2024-05-07 11:48:31.641
55.0, -90.13906873203814, 48.84870327124372, 72.59706798987463, -86.70210067275912, 0.03200000151991844, 1.0240000486373901, -0.04800000227987766, 0.0, 0.0, 0.0, 0.0, 0.0, 1.7151005116421604E9, 0.0, 2024-05-07 11:48:31.642
55.0, 23.262177724391222, -52.741939125116915, 9.740569434594363, -5.381716036237776, 0.03200000151991844, 1.0240000486373901, -0.04800000227987766, 0.0, 0.0, 0.0, 0.0, 0.0, 1.7151005116421711E9, 0.0, 2024-05-07 11:48:31.642
56.0, 8.414774900302291, -71.8677874985151, -18.65275102900341, -44.96107726730406, 0.03200000151991844, 1.0240000486373901, -0.04800000227987766, 0.0, 0.0, 0.0, 0.0, 0.0, 1.7151005116431012E9, 0.0, 2024-05-07 11:48:31.643
56.0, -80.68460164405406, 8.427864550147206, 64.76945738261566, -79.36815685965121, 0.03200000151991844, 1.0240000486373901, -0.04800000227987766, 0.0, 0.0, 0.0, 0.0, 0.0, 1.715100511643122E9, 0.0, 2024-05-07 11:48:31.643
57.0, -17.30825699493289, -6.24002307606861, 30.35863789031282, -17.68598689045757, 0.03200000151991844, 1.0240000486373901, -0.04800000227987766, 0.0, 0.0, 0.0, 0.0, 0.0, 1.7151005116713917E9, 0.0, 2024-05-07 11:48:31.671
57.0, 14.1181223327294, -103.72051542112604, -22.545986882876605, -26.53459018561989, 0.03200000151991844, 1.0240000486373901, -0.04800000227987766, 0.0, 0.0, 0.0, 0.0, 0.0, 1.7151005116714492E9, 0.0, 2024-05-07 11:48:31.671
58.0, -55.00270864833146, -27.003947630058974, 47.58087718626484, -75.19068860914558, 0.03200000151991844, 1.0240000486373901, -0.04800000227987766, 0.0, 0.0, 0.0, 0.0, 0.0, 1.7151005116716728E9, 0.0, 2024-05-07 11:48:31.671
58.0, -61.64103106968105, 42.15428235055879, 69.69116572430357, -49.340500115416944, 0.03200000151991844, 1.0240000486373901, -0.04800000227987766, 0.0, 0.0, 0.0, 0.0, 0.0, 1.7151005116716874E9, 0.0, 2024-05-07 11:48:31.671
59.0, 29.39935355167836, -78.9474181146361, -10.552127724979073, 3.092897263355553, 0.03200000151991844, 1.0240000486373901, -0.04800000227987766, 0.0, 0.0, 0.0, 0.0, 0.0, 1.7151005117011712E9, 0.0, 2024-05-07 11:48:31.701
59.0, -20.18050016090274, -63.77464399440214, 20.096352411899716, -49.647171911783516, 0.03200000151991844, 1.0240000486373901, -0.04800000227987766, 0.0, 0.0, 0.0, 0.0, 0.0, 1.715100511701192E9, 0.0, 2024-05-07 11:48:31.701
60.0, -88.94978054612875, 49.8210772597231, 70.24467091774568, -79.77580595482141, 0.03200000151991844, 1.0240000486373901, -0.04800000227987766, 0.0, 0.0, 0.0, 0.0, 0.0, 1.7151005117018447E9, 0.0, 2024-05-07 11:48:31.701
60.0, 20.756444754078984, -45.63986910926178, -0.41699884505942464, 1.1892881859093904, 0.03200000151991844, 1.0240000486373901, -0.04800000227987766, 0.0, 0.0, 0.0, 0.0, 0.0, 1.7151005117018583E9, 0.0, 2024-05-07 11:48:31.701
61.0, 5.22838013805449, -69.10774133121595, -10.937337420415133, -48.80569442175329, 0.03200000151991844, 1.008000047877431, -0.04800000227987766, 0.0, 0.0, 0.0, 0.0, 0.0, 1.7151005117022529E9, 0.0, 2024-05-07 11:48:31.702
61.0, -77.98439387604594, 10.342693327460438, 52.39786832919344, -89.71646003704518, 0.03200000151991844, 1.008000047877431, -0.04800000227987766, 0.0, 0.0, 0.0, 0.0, 0.0, 1.7151005117022636E9, 0.0, 2024-05-07 11:48:31.702
62.0, -14.940900322981179, -9.964963431935757, 30.34741819044575, -20.621808355674148, 0.0, 1.008000047877431, -0.04800000227987766, 0.0, 0.0, 0.0, 0.0, 0.0, 1.7151005117032824E9, 0.0, 2024-05-07 11:48:31.703
62.0, 20.16554056107998, -85.17809144081548, -28.518607112113386, -18.347949182614684, 0.0, 1.008000047877431, -0.04800000227987766, 0.0, 0.0, 0.0, 0.0, 0.0, 1.7151005117033043E9, 0.0, 2024-05-07 11:48:31.703
63.0, -47.08534044213593, -23.18550977529958, 18.469495931174606, -63.08089255262166, 0.0, 1.008000047877431, -0.04800000227987766, 0.0, 0.0, 0.0, 0.0, 0.0, 1.715100511731112E9, 0.0, 2024-05-07 11:48:31.731
63.0, -64.49831463582814, 21.5848325942643, 60.44987293379381, -67.00778750609607, 0.0, 1.008000047877431, -0.04800000227987766, 0.0, 0.0, 0.0, 0.0, 0.0, 1.715100511731124E9, 0.0, 2024-05-07 11:48:31.731
64.0, 28.786009958945215, -73.7564369761385, -14.70715657575056, -6.081077327951789, 0.0, 1.008000047877431, -0.04800000227987766, 0.0, 0.0, 0.0, 0.0, 0.0, 1.71510051173171E9, 0.0, 2024-05-07 11:48:31.731
64.0, -20.1580607611686, -66.51225076196715, 6.352220074739307, -65.43328962475061, 0.0, 1.008000047877431, -0.04800000227987766, 0.0, 0.0, 0.0, 0.0, 0.0, 1.7151005117317238E9, 0.0, 2024-05-07 11:48:31.731
65.0, -92.8205770002678, 37.415829106699675, 78.54350891942158, -83.17537501454353, 0.0, 1.008000047877431, -0.04800000227987766, 0.0, 0.0, 0.0, 0.0, 0.0, 1.715100511761299E9, 0.0, 2024-05-07 11:48:31.761
65.0, 20.330096159130335, -53.897568211425096, 11.49084261385724, -0.7479799911379814, 0.0, 1.008000047877431, -0.04800000227987766, 0.0, 0.0, 0.0, 0.0, 0.0, 1.7151005117613292E9, 0.0, 2024-05-07 11:48:31.761
66.0, -5.6135898334905505, -91.322747068014, -7.317114263307303, -39.42228543292731, 0.0, 1.008000047877431, -0.04800000227987766, 0.0, 0.0, 0.0, 0.0, 0.0, 1.7151005117617087E9, 0.0, 2024-05-07 11:48:31.761
66.0, -82.16934192646295, 16.883778349962085, 57.43177366955206, -84.64141579717398, 0.0, 1.008000047877431, -0.04800000227987766, 0.0, 0.0, 0.0, 0.0, 0.0, 1.7151005117617211E9, 0.0, 2024-05-07 11:48:31.761
67.0, -14.551950727589428, 1.3893728335388005, 38.01795299956575, -17.846802588552237, 0.0, 1.008000047877431, -0.04800000227987766, 0.0, 0.0, 0.0, 0.0, 0.0, 1.7151005117623096E9, 0.0, 2024-05-07 11:48:31.762
67.0, 20.382454758509994, -90.81412067404017, -7.571427460294217, -26.800123082473874, 0.0, 1.008000047877431, -0.04800000227987766, 0.0, 0.0, 0.0, 0.0, 0.0, 1.7151005117623267E9, 0.0, 2024-05-07 11:48:31.762
68.0, -53.89569826144725, -35.7029549269937, 32.69607536261901, -73.01406683493406, 0.0, 1.008000047877431, -0.04800000227987766, 0.0, 0.0, 0.0, 0.0, 0.0, 1.715100511763354E9, 0.0, 2024-05-07 11:48:31.763
68.0, -59.98425538931042, 38.39568289509043, 56.60899567930028, -49.86408610921353, 0.0, 1.008000047877431, -0.04800000227987766, 0.0, 0.0, 0.0, 0.0, 0.0, 1.715100511763373E9, 0.0, 2024-05-07 11:48:31.763
69.0, 30.14359364286065, -99.19149657478556, -5.43594458559528, -4.790811843238771, 0.0, 1.008000047877431, -0.04800000227987766, 0.0, 0.0, 0.0, 0.0, 0.0, 1.7151005117911928E9, 0.0, 2024-05-07 11:48:31.791
69.0, -17.588749491609633, -60.8986609284766, 11.135552118066698, -61.71208916883916, 0.0, 1.008000047877431, -0.04800000227987766, 0.0, 0.0, 0.0, 0.0, 0.0, 1.7151005117912204E9, 0.0, 2024-05-07 11:48:31.791
70.0, -88.94230074621737, 44.5964370216243, 64.59742198465392, -72.97666783537716, 0.0, 1.008000047877431, -0.04800000227987766, 0.0, 0.0, 0.0, 0.0, 0.0, 1.71510051179173E9, 0.0, 2024-05-07 11:48:31.791
70.0, 21.7512581422925, -50.56905725086108, 6.6626317710615695, 5.082524039782584, 0.0, 1.008000047877431, -0.04800000227987766, 0.0, 0.0, 0.0, 0.0, 0.0, 1.715100511791746E9, 0.0, 2024-05-07 11:48:31.791
71.0, 2.0382454758509994, -71.78176979953423, -32.29964596731588, -22.49923813343048, 0.0, 1.008000047877431, -0.04800000227987766, 0.0, 0.0, 0.0, 0.0, 0.0, 1.7151005118213744E9, 0.0, 2024-05-07 11:48:31.821
71.0, -80.48638694640249, 17.433543643448502, 52.5250249276869, -82.34511722438037, 0.0, 1.008000047877431, -0.04800000227987766, 0.0, 0.0, 0.0, 0.0, 0.0, 1.7151005118214073E9, 0.0, 2024-05-07 11:48:31.821
72.0, -15.202693319879472, 6.857106568757445, 44.214967226143926, -20.704086154699326, 0.0, 1.008000047877431, -0.04800000227987766, 0.0, 0.0, 0.0, 0.0, 0.0, 1.71510051182148E9, 0.0, 2024-05-07 11:48:31.821
72.0, 20.771404353901744, -91.92861086083576, -21.06124660046771, -16.47051940485835, 0.0, 1.008000047877431, -0.04800000227987766, 0.0, 0.0, 0.0, 0.0, 0.0, 1.7151005118214896E9, 0.0, 2024-05-07 11:48:31.821
73.0, -51.25532889273018, -29.337645202409476, 37.408349306788296, -69.60327807534486, 0.0, 1.008000047877431, -0.04800000227987766, 0.0, 0.0, 0.0, 0.0, 0.0, 1.7151005118221097E9, 0.0, 2024-05-07 11:48:31.822
73.0, -65.7324816212058, 32.85689106071368, 56.21630618395284, -58.04324731230736, 0.0, 1.008000047877431, -0.04800000227987766, 0.0, 0.0, 0.0, 0.0, 0.0, 1.7151005118221204E9, 0.0, 2024-05-07 11:48:31.822
74.0, 29.964078444987535, -84.20945735229179, -2.6796383182518184, -2.864763366058469, 0.0, 1.008000047877431, -0.04800000227987766, 0.0, 0.0, 0.0, 0.0, 0.0, 1.7151005118232024E9, 0.0, 2024-05-07 11:48:31.823
74.0, -22.824609429575503, -82.36942657409236, -0.9480646387673914, -57.396244619973004, 0.0, 1.008000047877431, -0.04800000227987766, 0.0, 0.0, 0.0, 0.0, 0.0, 1.7151005118232183E9, 0.0, 2024-05-07 11:48:31.823
75.0, -88.42245465237647, 56.05923038581386, 67.60056164907292, -81.97112722881138, 0.0, 1.008000047877431, -0.04800000227987766, 0.0, 0.0, 0.0, 0.0, 0.0, 1.7151005118514967E9, 0.0, 2024-05-07 11:48:31.851
75.0, 21.152874149382114, -49.937014158349484, 12.807287398260087, 0.39642939530313015, 0.0, 1.008000047877431, -0.04800000227987766, 0.0, 0.0, 0.0, 0.0, 0.0, 1.7151005118515244E9, 0.0, 2024-05-07 11:48:31.851
76.0, -6.152135427109897, -74.2388840704225, 4.751542893704027, -36.366787169128656, 0.0, 1.008000047877431, -0.04800000227987766, 0.0, 0.0, 0.0, 0.0, 0.0, 1.7151005118519297E9, 0.0, 2024-05-07 11:48:31.851
76.0, -84.24124650191516, 2.7880954169668257, 55.83109648851678, -86.5599844744429, 0.0, 1.008000047877431, -0.04800000227987766, 0.0, 0.0, 0.0, 0.0, 0.0, 1.7151005118519459E9, 0.0, 2024-05-07 11:48:31.851
77.0, -21.403447446413338, 5.065694489981979, 31.92939587170258, -28.756090759299695, 0.0, 1.008000047877431, -0.04800000227987766, 0.0, 0.0, 0.0, 0.0, 0.0, 1.715100511881116E9, 0.0, 2024-05-07 11:48:31.881
77.0, 22.222485536709428, -95.57501331763342, -13.723562887404114, -34.436998791992664, 0.0, 1.008000047877431, -0.04800000227987766, 0.0, 0.0, 0.0, 0.0, 0.0, 1.7151005118811336E9, 0.0, 2024-05-07 11:48:31.881
78.0, -57.83755281474441, -29.068372405599803, 19.18755672266707, -85.0789840919897, 0.0, 1.008000047877431, -0.04800000227987766, 0.0, 0.0, 0.0, 0.0, 0.0, 1.7151005118816051E9, 0.0, 2024-05-07 11:48:31.881
78.0, -57.04843392409384, 48.42983447620645, 55.31873019458726, -62.38153126090765, 0.0, 1.008000047877431, -0.04800000227987766, 0.0, 0.0, 0.0, 0.0, 0.0, 1.7151005118816164E9, 0.0, 2024-05-07 11:48:31.881
79.0, 33.988210797309875, -83.22586366394535, -15.040007671806961, -2.41223547141999, 0.0, 1.008000047877431, -0.04800000227987766, 0.0, 0.0, 0.0, 0.0, 0.0, 1.7151005118822966E9, 0.0, 2024-05-07 11:48:31.882
79.0, -25.147087302058935, -41.32402456039563, -13.932997284922749, -46.95070404373109, 0.0, 1.008000047877431, -0.04800000227987766, 0.0, 0.0, 0.0, 0.0, 0.0, 1.715100511882314E9, 0.0, 2024-05-07 11:48:31.882
80.0, -85.40061548817903, 56.53793758014217, 71.95006529754028, -77.15787598583847, 0.0, 1.008000047877431, -0.03200000151991844, 0.0, 0.0, 0.0, 0.0, 0.0, 1.7151005118831391E9, 0.0, 2024-05-07 11:48:31.883
80.0, 15.112935720942914, -54.81758360052481, 10.750342422630638, -10.505378975532949, 0.0, 1.008000047877431, -0.03200000151991844, 0.0, 0.0, 0.0, 0.0, 0.0, 1.715100511883162E9, 0.0, 2024-05-07 11:48:31.883
81.0, -0.18325509782880545, -80.38727959757671, -26.663616734091192, -29.283416653051972, 0.0, 1.0400000493973494, -0.03200000151991844, 0.0, 0.0, 0.0, 0.0, 0.0, 1.7151005119113412E9, 0.0, 2024-05-07 11:48:31.911
81.0, -84.2262869020924, 13.136398594360799, 48.0034858812578, -79.45417455863208, 0.0, 1.0400000493973494, -0.03200000151991844, 0.0, 0.0, 0.0, 0.0, 0.0, 1.7151005119113588E9, 0.0, 2024-05-07 11:48:31.911
82.0, -17.454113093204796, 3.7529896055348217, 50.81215074798092, -20.666687155142426, -0.01600000075995922, 1.0400000493973494, -0.03200000151991844, 0.0, 0.0, 0.0, 0.0, 0.0, 1.7151005119118893E9, 0.0, 2024-05-07 11:48:31.911
82.0, 24.253251212649047, -91.2479490689002, -10.750342422630638, -25.865148093551397, -0.01600000075995922, 1.0400000493973494, -0.03200000151991844, 0.0, 0.0, 0.0, 0.0, 0.0, 1.715100511911905E9, 0.0, 2024-05-07 11:48:31.911
83.0, -55.350519344210625, -19.688703316729516, 26.068972641136497, -96.01819146238267, -0.01600000075995922, 1.0400000493973494, -0.03200000151991844, 0.0, 0.0, 0.0, 0.0, 0.0, 1.715100511971198E9, 0.0, 2024-05-07 11:48:31.971
83.0, -63.58203914668411, 42.78258554311469, 70.12873401911929, -61.409157272428274, -0.01600000075995922, 1.0400000493973494, -0.03200000151991844, 0.0, 0.0, 0.0, 0.0, 0.0, 1.7151005119712327E9, 0.0, 2024-05-07 11:48:31.971
84.0, 32.436152315698564, -81.93559817923233, -4.1269796011038125, -5.497652934864163, -0.01600000075995922, 1.0400000493973494, -0.03200000151991844, 0.0, 0.0, 0.0, 0.0, 0.0, 1.7151005119715872E9, 0.0, 2024-05-07 11:48:31.971
84.0, -19.959846063517034, -56.13402838492766, -13.379492091480643, -52.25388218089938, -0.01600000075995922, 1.0400000493973494, -0.03200000151991844, 0.0, 0.0, 0.0, 0.0, 0.0, 1.7151005119715984E9, 0.0, 2024-05-07 11:48:31.971
85.0, -89.22279324289411, 40.54986526956782, 76.80071554007009, -79.16246236208826, -0.01600000075995922, 1.0400000493973494, -0.03200000151991844, 0.0, 0.0, 0.0, 0.0, 0.0, 1.7151005119723072E9, 0.0, 2024-05-07 11:48:31.972
85.0, 17.902901087887585, -50.03051165724173, 15.436437067110091, -6.709380520507693, -0.01600000075995922, 1.0400000493973494, -0.03200000151991844, 0.0, 0.0, 0.0, 0.0, 0.0, 1.7151005119723213E9, 0.0, 2024-05-07 11:48:31.972
86.0, 8.42599460016936, -77.74317032890394, -24.74130815686658, -38.057221949100494, -0.01600000075995922, 1.0400000493973494, -0.03200000151991844, 0.0, 0.0, 0.0, 0.0, 0.0, 1.7151005119728E9, 0.0, 2024-05-07 11:48:31.972
86.0, -78.78847236651927, 19.48300881916657, 58.766917953733355, -77.1466562859714, -0.01600000075995922, 1.0400000493973494, -0.03200000151991844, 0.0, 0.0, 0.0, 0.0, 0.0, 1.7151005119728117E9, 0.0, 2024-05-07 11:48:31.972
87.0, -14.937160423025489, -2.5188226201571524, 38.30592529615387, -20.270257759839296, -0.01600000075995922, 1.0400000493973494, -0.03200000151991844, 0.0, 0.0, 0.0, 0.0, 0.0, 1.7151005119735525E9, 0.0, 2024-05-07 11:48:31.973
87.0, 17.427933793514967, -90.54858777718619, -16.71174295200035, -20.696606354787946, -0.01600000075995922, 1.0400000493973494, -0.03200000151991844, 0.0, 0.0, 0.0, 0.0, 0.0, 1.7151005119735634E9, 0.0, 2024-05-07 11:48:31.973
88.0, -49.38163901492953, -32.636236963327974, 29.274066903162748, -60.49288178328425, -0.01600000075995922, 1.0400000493973494, -0.03200000151991844, 0.0, 0.0, 0.0, 0.0, 0.0, 1.715100511974459E9, 0.0, 2024-05-07 11:48:31.974
88.0, -63.06219305284321, 33.799345849547535, 67.1629933542572, -56.68940352834761, -0.01600000075995922, 1.0400000493973494, -0.03200000151991844, 0.0, 0.0, 0.0, 0.0, 0.0, 1.715100511974473E9, 0.0, 2024-05-07 11:48:31.974
90.0, -129.8044476620853, 143.3821544512175, 122.64066929696128, -99.27938422374427, -0.01600000075995922, 1.0400000493973494, -0.06400000303983688, 0.0, 0.0, 0.0, 0.0, 0.0, 1.7151005120015292E9, 0.0, 2024-05-07 11:48:32.001
90.0, -22.633874531835318, 51.39557514106855, 73.6442399774678, -15.187733720056713, -0.01600000075995922, 1.0400000493973494, -0.06400000303983688, 0.0, 0.0, 0.0, 0.0, 0.0, 1.7151005120015626E9, 0.0, 2024-05-07 11:48:32.001
91.0, -35.656206177547574, 12.354759503621608, 47.872589382808656, -61.26704107411206, -0.01600000075995922, 1.0240000486373901, -0.06400000303983688, 0.0, 0.0, 0.0, 0.0, 0.0, 1.715100512001959E9, 0.0, 2024-05-07 11:48:32.001
91.0, -118.12100020051003, 110.00728724664077, 106.19632919179276, -91.31713721808046, -0.01600000075995922, 1.0240000486373901, -0.06400000303983688, 0.0, 0.0, 0.0, 0.0, 0.0, 1.7151005120019736E9, 0.0, 2024-05-07 11:48:32.001
92.0, -50.41759130265564, 97.72545579215512, 90.95997677231207, -25.28920350037515, 0.01600000075995922, 1.0240000486373901, -0.06400000303983688, 0.0, 0.0, 0.0, 0.0, 0.0, 1.7151005120616152E9, 0.0, 2024-05-07 11:48:32.061
92.0, -15.759938413277268, -10.817660621833056, 48.77390527212992, -35.95539817400277, 0.01600000075995922, 1.0240000486373901, -0.06400000303983688, 0.0, 0.0, 0.0, 0.0, 0.0, 1.7151005120616446E9, 0.0, 2024-05-07 11:48:32.061
93.0, -88.27285865414888, 55.6740206903778, 88.68237769929692, -98.00033843889832, 0.01600000075995922, 1.0240000486373901, -0.06400000303983688, 0.0, 0.0, 0.0, 0.0, 0.0, 1.7151005120616922E9, 0.0, 2024-05-07 11:48:32.061
93.0, -97.73106564208865, 133.5611771675758, 123.39612908801064, -67.105024904944, 0.01600000075995922, 1.0240000486373901, -0.06400000303983688, 0.0, 0.0, 0.0, 0.0, 0.0, 1.7151005120616996E9, 0.0, 2024-05-07 11:48:32.061
94.0, -5.550011534243822, 16.599545953329653, 55.43466709321365, -15.120415520854294, 0.01600000075995922, 1.0240000486373901, -0.06400000303983688, 0.0, 0.0, 0.0, 0.0, 0.0, 1.71510051206231E9, 0.0, 2024-05-07 11:48:32.062
94.0, -57.49722191877663, 35.56831852858886, 61.220292324665934, -65.56418612319976, 0.01600000075995922, 1.0240000486373901, -0.06400000303983688, 0.0, 0.0, 0.0, 0.0, 0.0, 1.7151005120623224E9, 0.0, 2024-05-07 11:48:32.062
95.0, -127.54928798880428, 145.42787972697988, 128.57963042659685, -97.77594444155693, 0.01600000075995922, 1.0240000486373901, -0.06400000303983688, 0.0, 0.0, 0.0, 0.0, 0.0, 1.7151005120630476E9, 0.0, 2024-05-07 11:48:32.063
95.0, -26.833782182075083, 31.001900682691485, 81.30355508672073, -19.840169264934957, 0.01600000075995922, 1.0240000486373901, -0.06400000303983688, 0.0, 0.0, 0.0, 0.0, 0.0, 1.7151005120630643E9, 0.0, 2024-05-07 11:48:32.063
96.0, -36.25833007041365, 10.144478629808873, 54.85124270012602, -45.36498646251857, 0.01600000075995922, 1.0240000486373901, -0.06400000303983688, 0.0, 0.0, 0.0, 0.0, 0.0, 1.7151005120636785E9, 0.0, 2024-05-07 11:48:32.063
96.0, -112.00252387300134, 111.9258559239097, 123.54572508623824, -88.2279798546806, 0.01600000075995922, 1.0240000486373901, -0.06400000303983688, 0.0, 0.0, 0.0, 0.0, 0.0, 1.7151005120636969E9, 0.0, 2024-05-07 11:48:32.063
97.0, -49.88652550894767, 104.39743731310591, 92.62423225259408, -36.64353976584971, 0.01600000075995922, 1.0240000486373901, -0.06400000303983688, 0.0, 0.0, 0.0, 0.0, 0.0, 1.7151005120641873E9, 0.0, 2024-05-07 11:48:32.064
97.0, -15.075536721386015, 0.7461100411601365, 50.00807225750759, -35.30839548166841, 0.01600000075995922, 1.0240000486373901, -0.06400000303983688, 0.0, 0.0, 0.0, 0.0, 0.0, 1.7151005120641997E9, 0.0, 2024-05-07 11:48:32.064
98.0, -88.06716415658593, 69.13018073095009, 99.85345886694267, -92.87667549960315, 0.01600000075995922, 1.0240000486373901, -0.06400000303983688, 0.0, 0.0, 0.0, 0.0, 0.0, 1.7151005120652232E9, 0.0, 2024-05-07 11:48:32.065
98.0, -98.40050773415715, 135.64430144289508, 113.28343960782513, -61.341839073225856, 0.01600000075995922, 1.0240000486373901, -0.06400000303983688, 0.0, 0.0, 0.0, 0.0, 0.0, 1.7151005120652387E9, 0.0, 2024-05-07 11:48:32.065
99.0, -6.989873017184436, 12.739969199057668, 49.36480946512893, -13.474859540350735, 0.01600000075995922, 1.0240000486373901, -0.06400000303983688, 0.0, 0.0, 0.0, 0.0, 0.0, 1.715100512091156E9, 0.0, 2024-05-07 11:48:32.091
99.0, -55.298160744830966, 26.652397034224123, 51.43671404058114, -56.565986829809844, 0.01600000075995922, 1.0240000486373901, -0.06400000303983688, 0.0, 0.0, 0.0, 0.0, 0.0, 1.7151005120911756E9, 0.0, 2024-05-07 11:48:32.091
100.0, -127.99059618357569, 149.84844147460535, 124.83599057095125, -89.94833383429796, 0.01600000075995922, 1.0240000486373901, -0.03200000151991844, 0.0, 0.0, 0.0, 0.0, 0.0, 1.7151005120915923E9, 0.0, 2024-05-07 11:48:32.091
100.0, -20.281477459706366, 49.043178068939596, 72.4212926919572, -12.315490554086864, 0.01600000075995922, 1.0240000486373901, -0.03200000151991844, 0.0, 0.0, 0.0, 0.0, 0.0, 1.7151005120916035E9, 0.0, 2024-05-07 11:48:32.091
0.0, 34.3678106428124, -58.14609456108883, -11.69840706139803, 13.923647535033524, 0.01600000075995922, 1.0240000486373901, -0.03200000151991844, 0.0, 0.0, 0.0, 0.0, 0.0, 1.7151005120926037E9, 0.0, 2024-05-07 11:48:32.092
1.0, -43.7063408321701, 35.09335123421624, 56.64452472887933, -20.846202353015542, 0.01600000075995922, 1.0240000486373901, -0.03200000151991844, 0.0, 0.0, 0.0, 0.0, 0.0, 1.7151005121214058E9, 0.0, 2024-05-07 11:48:32.121
1.0, 16.786540951114148, 17.373705244157463, 47.55282793659717, 36.004016873426735, 0.01600000075995922, 1.0240000486373901, -0.03200000151991844, 0.0, 0.0, 0.0, 0.0, 0.0, 1.7151005121214452E9, 0.0, 2024-05-07 11:48:32.121
2.0, 57.2298190719448, -69.0890418314375, -16.687433602288365, 34.70253168884665, 0.03200000151991844, 1.0240000486373901, -0.03200000151991844, 0.0, 0.0, 0.0, 0.0, 0.0, 1.7151005121219192E9, 0.0, 2024-05-07 11:48:32.121
2.0, -12.945663696620613, 2.5524817197583616, 29.03284335602075, -2.5580915696918964, 0.03200000151991844, 1.0240000486373901, -0.03200000151991844, 0.0, 0.0, 0.0, 0.0, 0.0, 1.7151005121219337E9, 0.0, 2024-05-07 11:48:32.121
3.0, -25.18261635163799, 66.07094256719574, 72.5540591403842, -8.212820302695036, 0.03200000151991844, 1.0240000486373901, -0.03200000151991844, 0.0, 0.0, 0.0, 0.0, 0.0, 1.7151005121226337E9, 0.0, 2024-05-07 11:48:32.122
3.0, 68.54675633786246, -52.0799768329598, 0.1084570987150073, 49.42277791444212, 0.03200000151991844, 1.0240000486373901, -0.03200000151991844, 0.0, 0.0, 0.0, 0.0, 0.0, 1.7151005121226556E9, 0.0, 2024-05-07 11:48:32.122
4.0, 19.681223516818136, -45.034005316440016, 26.19425928965211, -1.088310887105763, 0.03200000151991844, 1.0240000486373901, -0.03200000151991844, 0.0, 0.0, 0.0, 0.0, 0.0, 1.7151005121512356E9, 0.0, 2024-05-07 11:48:32.151
4.0, -56.24622538359836, 68.00447084428743, 76.83624458964914, -25.74921119492501, 0.03200000151991844, 1.0240000486373901, -0.03200000151991844, 0.0, 0.0, 0.0, 0.0, 0.0, 1.715100512151258E9, 0.0, 2024-05-07 11:48:32.151
5.0, 52.89901492325589, -26.042793341446668, 21.493205045349896, 57.773974515497684, 0.03200000151991844, 1.0240000486373901, -0.03200000151991844, 0.0, 0.0, 0.0, 0.0, 0.0, 1.7151005121514833E9, 0.0, 2024-05-07 11:48:32.151
5.0, 36.10312422225252, -55.6740206903778, -10.165048079565167, 13.362662541680038, 0.03200000151991844, 1.0240000486373901, -0.03200000151991844, 0.0, 0.0, 0.0, 0.0, 0.0, 1.7151005121514938E9, 0.0, 2024-05-07 11:48:32.151
6.0, -43.60910343332216, 44.20374752627686, 62.983655153773725, -26.54580988548696, 0.03200000151991844, 1.0240000486373901, -0.03200000151991844, 0.0, 0.0, 0.0, 0.0, 0.0, 1.7151005121523864E9, 0.0, 2024-05-07 11:48:32.152
6.0, 15.93010386126116, 32.45298186549917, 48.97025001980364, 30.042616344057024, 0.03200000151991844, 1.0240000486373901, -0.03200000151991844, 0.0, 0.0, 0.0, 0.0, 0.0, 1.7151005121523988E9, 0.0, 2024-05-07 11:48:32.152
7.0, 58.19845316046849, -70.95525190932676, 2.5580915696918964, 28.778530159033835, 0.03200000151991844, 1.0240000486373901, -0.03200000151991844, 0.0, 0.0, 0.0, 0.0, 0.0, 1.7151005121816313E9, 0.0, 2024-05-07 11:48:32.181
7.0, -11.603039612527937, 2.855413616169244, 38.13949974812567, -16.276044607162476, 0.03200000151991844, 1.0240000486373901, -0.03200000151991844, 0.0, 0.0, 0.0, 0.0, 0.0, 1.7151005121816816E9, 0.0, 2024-05-07 11:48:32.181
8.0, -28.75422080932185, 52.84291642392054, 64.65539043396711, 11.223439767025411, 0.03200000151991844, 1.0240000486373901, -0.03200000151991844, 0.0, 0.0, 0.0, 0.0, 0.0, 1.7151005121818233E9, 0.0, 2024-05-07 11:48:32.181
8.0, 62.398360810708255, -61.85607531713322, -6.915075018070638, 58.84732580278069, 0.03200000151991844, 1.0240000486373901, -0.03200000151991844, 0.0, 0.0, 0.0, 0.0, 0.0, 1.7151005121818385E9, 0.0, 2024-05-07 11:48:32.181
9.0, 20.848072302993387, -35.4785609296523, 17.854282388463616, 18.90519427601248, 0.03200000151991844, 1.0240000486373901, -0.03200000151991844, 0.0, 0.0, 0.0, 0.0, 0.0, 1.7151005121824691E9, 0.0, 2024-05-07 11:48:32.182
9.0, -56.18638698430732, 69.43311262736097, 83.54562511015683, -22.48053863365203, 0.03200000151991844, 1.0240000486373901, -0.03200000151991844, 0.0, 0.0, 0.0, 0.0, 0.0, 1.71510051218248E9, 0.0, 2024-05-07 11:48:32.182
10.0, 60.88370132865384, -20.806933403480798, 25.70059249550104, 61.67095026932657, 0.03200000151991844, 1.0240000486373901, -0.03200000151991844, 0.0, 0.0, 0.0, 0.0, 0.0, 1.7151005122115748E9, 0.0, 2024-05-07 11:48:32.211
10.0, 38.653735992033035, -58.24707185989246, 10.08651018049568, 23.29583682399243, 0.03200000151991844, 1.0240000486373901, -0.03200000151991844, 0.0, 0.0, 0.0, 0.0, 0.0, 1.7151005122116108E9, 0.0, 2024-05-07 11:48:32.211
11.0, -42.46469404688105, 30.227741391863674, 65.11165822856128, -21.631581343710423, 0.03200000151991844, 1.0240000486373901, -0.03200000151991844, 0.0, 0.0, 0.0, 0.0, 0.0, 1.715100512211814E9, 0.0, 2024-05-07 11:48:32.211
11.0, 20.35814540879801, 13.832019986119121, 48.506502425298095, 35.77214307617396, 0.03200000151991844, 1.0240000486373901, -0.03200000151991844, 0.0, 0.0, 0.0, 0.0, 0.0, 1.715100512211823E9, 0.0, 2024-05-07 11:48:32.211
12.0, 51.515251939650625, -74.07058857241645, -3.4743670588359237, 40.2039245236665, 0.03200000151991844, 1.0240000486373901, -0.03200000151991844, 0.0, 0.0, 0.0, 0.0, 0.0, 1.7151005122125783E9, 0.0, 2024-05-07 11:48:32.212
12.0, -14.351866079960018, -10.974736419972032, 33.35990760475397, -21.71011924277991, 0.03200000151991844, 1.0240000486373901, -0.03200000151991844, 0.0, 0.0, 0.0, 0.0, 0.0, 1.715100512212596E9, 0.0, 2024-05-07 11:48:32.212
13.0, -24.172843363601714, 69.91181982168928, 64.18416303955019, -7.315244313329458, 0.03200000151991844, 1.0240000486373901, -0.03200000151991844, 0.0, 0.0, 0.0, 0.0, 0.0, 1.7151005122410705E9, 0.0, 2024-05-07 11:48:32.241
13.0, 61.04077712679282, -63.539030297193676, -0.4749672943726182, 57.325186520814896, 0.03200000151991844, 1.0240000486373901, -0.03200000151991844, 0.0, 0.0, 0.0, 0.0, 0.0, 1.7151005122410855E9, 0.0, 2024-05-07 11:48:32.241
14.0, 20.990188501309603, -39.427895282860845, 0.7704193908721209, 0.6507425922900438, 0.03200000151991844, 1.0240000486373901, -0.03200000151991844, 0.0, 0.0, 0.0, 0.0, 0.0, 1.715100512241552E9, 0.0, 2024-05-07 11:48:32.241
14.0, -48.07080408046022, 75.607687454205, 81.20070783793926, -21.893374340608716, 0.03200000151991844, 1.0240000486373901, -0.03200000151991844, 0.0, 0.0, 0.0, 0.0, 0.0, 1.7151005122415624E9, 0.0, 2024-05-07 11:48:32.241
15.0, 57.47291256906465, -21.15100419940427, 7.068410916253924, 59.57286639418453, 0.03200000151991844, 1.0240000486373901, -0.03200000151991844, 0.0, 0.0, 0.0, 0.0, 0.0, 1.7151005122424664E9, 0.0, 2024-05-07 11:48:32.242
15.0, 33.028926458675414, -55.116775596980006, -17.872981888242066, 1.1780684860423207, 0.03200000151991844, 1.0240000486373901, -0.03200000151991844, 0.0, 0.0, 0.0, 0.0, 0.0, 1.7151005122424805E9, 0.0, 2024-05-07 11:48:32.242
16.0, -45.78946510748938, 45.28831851342693, 70.75890716165304, -32.97095800936222, 0.03200000151991844, 1.0240000486373901, -0.03200000151991844, 0.0, 0.0, 0.0, 0.0, 0.0, 1.715100512271182E9, 0.0, 2024-05-07 11:48:32.271
16.0, 19.834559415001422, 14.740815675351769, 45.312627863138914, 32.71290491241962, 0.03200000151991844, 1.0240000486373901, -0.03200000151991844, 0.0, 0.0, 0.0, 0.0, 0.0, 1.715100512271215E9, 0.0, 2024-05-07 11:48:32.271
17.0, 56.4893188807182, -74.11920727184042, 9.622762585990131, 32.26785681769252, 0.03200000151991844, 1.0240000486373901, -0.03200000151991844, 0.0, 0.0, 0.0, 0.0, 0.0, 1.7151005122715917E9, 0.0, 2024-05-07 11:48:32.271
17.0, -17.010934948455542, -6.62523277150467, 36.000276973471045, -13.6730742380023, 0.03200000151991844, 1.0240000486373901, -0.03200000151991844, 0.0, 0.0, 0.0, 0.0, 0.0, 1.7151005122716045E9, 0.0, 2024-05-07 11:48:32.271
18.0, -26.581338935066015, 59.38774134637788, 69.6631164746359, 0.8676567897200584, 0.03200000151991844, 1.0240000486373901, -0.03200000151991844, 0.0, 0.0, 0.0, 0.0, 0.0, 1.7151005122725663E9, 0.0, 2024-05-07 11:48:32.272
18.0, 66.5683492613025, -56.46313958102837, 10.254805678501725, 57.11949202325195, 0.03200000151991844, 1.0240000486373901, -0.03200000151991844, 0.0, 0.0, 0.0, 0.0, 0.0, 1.7151005122725887E9, 0.0, 2024-05-07 11:48:32.272
19.0, 21.47637549554929, -42.98454014072195, 13.183147343806922, 4.312104648910463, 0.03200000151991844, 1.0240000486373901, -0.03200000151991844, 0.0, 0.0, 0.0, 0.0, 0.0, 1.7151005123012738E9, 0.0, 2024-05-07 11:48:32.301
19.0, -54.90734119946137, 65.73061167122796, 82.1132434271276, -23.105101926252246, 0.03200000151991844, 1.0240000486373901, -0.03200000151991844, 0.0, 0.0, 0.0, 0.0, 0.0, 1.7151005123013017E9, 0.0, 2024-05-07 11:48:32.301
20.0, 53.968626310583204, -28.03616001782939, 30.62604073714465, 52.64657167624682, 0.03200000151991844, 1.0240000486373901, -0.04800000227987766, 0.0, 0.0, 0.0, 0.0, 0.0, 1.7151005123309913E9, 0.0, 2024-05-07 11:48:32.330
20.0, 35.68425542721525, -52.59608302684501, -10.789611372165382, 34.11910729575902, 0.03200000151991844, 1.0240000486373901, -0.04800000227987766, 0.0, 0.0, 0.0, 0.0, 0.0, 1.7151005123310044E9, 0.0, 2024-05-07 11:48:32.331
21.0, -48.84122347133234, 39.483993782196194, 60.24230848625302, -22.742331630550325, 0.03200000151991844, 1.0400000493973494, -0.04800000227987766, 0.0, 0.0, 0.0, 0.0, 0.0, 1.7151005123314712E9, 0.0, 2024-05-07 11:48:32.331
21.0, 16.408811055589467, 23.839992267545313, 63.59325884655118, 39.684078429825604, 0.03200000151991844, 1.0400000493973494, -0.04800000227987766, 0.0, 0.0, 0.0, 0.0, 0.0, 1.7151005123314793E9, 0.0, 2024-05-07 11:48:32.331
22.0, 58.47894565714523, -64.24213148886338, -3.9942131526768208, 30.92897263355553, 0.01600000075995922, 1.0400000493973494, -0.04800000227987766, 0.0, 0.0, 0.0, 0.0, 0.0, 1.7151005123321204E9, 0.0, 2024-05-07 11:48:32.332
22.0, -14.344386280048639, -4.026002302300185, 31.684432424604893, -8.691527497023344, 0.01600000075995922, 1.0400000493973494, -0.04800000227987766, 0.0, 0.0, 0.0, 0.0, 0.0, 1.71510051233213E9, 0.0, 2024-05-07 11:48:32.332
23.0, -25.279853750485927, 59.48871864518151, 65.61654472257942, 0.523585993796587, 0.01600000075995922, 1.0400000493973494, -0.04800000227987766, 0.0, 0.0, 0.0, 0.0, 0.0, 1.7151005123328266E9, 0.0, 2024-05-07 11:48:32.332
23.0, 70.24093101778999, -65.55857627326623, -6.83279721904546, 49.86408610921353, 0.01600000075995922, 1.0400000493973494, -0.04800000227987766, 0.0, 0.0, 0.0, 0.0, 0.0, 1.715100512332839E9, 0.0, 2024-05-07 11:48:32.332
24.0, 16.24425545753911, -42.50209304643795, -11.70214696135372, 7.928587906062603, 0.01600000075995922, 1.0400000493973494, -0.04800000227987766, 0.0, 0.0, 0.0, 0.0, 0.0, 1.7151005123337328E9, 0.0, 2024-05-07 11:48:32.333
24.0, -55.69646009011194, 72.95983828557655, 72.77097333781421, -23.606248520314693, 0.01600000075995922, 1.0400000493973494, -0.04800000227987766, 0.0, 0.0, 0.0, 0.0, 0.0, 1.7151005123337452E9, 0.0, 2024-05-07 11:48:32.333
25.0, 50.42694105254486, -24.961962254252285, 24.339268911629915, 47.96047703176737, 0.01600000075995922, 1.0400000493973494, -0.04800000227987766, 0.0, 0.0, 0.0, 0.0, 0.0, 1.7151005123618336E9, 0.0, 2024-05-07 11:48:32.361
25.0, 35.381323530804366, -64.98263168008998, 14.05454403348267, 21.938253140076995, 0.01600000075995922, 1.0400000493973494, -0.04800000227987766, 0.0, 0.0, 0.0, 0.0, 0.0, 1.7151005123618655E9, 0.0, 2024-05-07 11:48:32.361
26.0, -45.449134211521596, 43.818537830840796, 61.04264707677066, -28.18388606607914, 0.01600000075995922, 1.0400000493973494, -0.04800000227987766, 0.0, 0.0, 0.0, 0.0, 0.0, 1.7151005123619108E9, 0.0, 2024-05-07 11:48:32.361
26.0, 14.67723737610504, 16.132058458868414, 38.32649474591017, 30.846694834530354, 0.01600000075995922, 1.0400000493973494, -0.04800000227987766, 0.0, 0.0, 0.0, 0.0, 0.0, 1.7151005123619204E9, 0.0, 2024-05-07 11:48:32.361
27.0, 55.083116497378796, -70.10255471942946, -13.482339340262115, 34.16772599518299, 0.01600000075995922, 1.0400000493973494, -0.04800000227987766, 0.0, 0.0, 0.0, 0.0, 0.0, 1.7151005123627567E9, 0.0, 2024-05-07 11:48:32.362
27.0, -14.093812983017415, -5.5331819844432175, 36.53134276717901, -19.582116167992353, 0.01600000075995922, 1.0400000493973494, -0.04800000227987766, 0.0, 0.0, 0.0, 0.0, 0.0, 1.7151005123627825E9, 0.0, 2024-05-07 11:48:32.362
28.0, -22.78908037999645, 67.89227384561673, 75.89378980081528, -3.306071560829878, 0.01600000075995922, 1.0400000493973494, -0.04800000227987766, 0.0, 0.0, 0.0, 0.0, 0.0, 1.7151005123910859E9, 0.0, 2024-05-07 11:48:32.391
28.0, 65.72313187131658, -60.397514334414154, 5.579930733889341, 52.912104573100805, 0.01600000075995922, 1.0400000493973494, -0.04800000227987766, 0.0, 0.0, 0.0, 0.0, 0.0, 1.7151005123911011E9, 0.0, 2024-05-07 11:48:32.391
29.0, 11.44222391443327, -50.15018845582381, 25.954905692487955, 2.1205232748761773, 0.01600000075995922, 1.0400000493973494, -0.04800000227987766, 0.0, 0.0, 0.0, 0.0, 0.0, 1.7151005123916404E9, 0.0, 2024-05-07 11:48:32.391
29.0, -56.91192757571116, 60.20303953671828, 84.28612530138344, -29.82196224667132, 0.01600000075995922, 1.0400000493973494, -0.04800000227987766, 0.0, 0.0, 0.0, 0.0, 0.0, 1.7151005123916605E9, 0.0, 2024-05-07 11:48:32.391
30.0, 56.332243082579225, -11.804994210135192, 31.314182328991592, 60.118891787715256, 0.01600000075995922, 1.0400000493973494, -0.04800000227987766, 0.0, 0.0, 0.0, 0.0, 0.0, 1.7151005123924613E9, 0.0, 2024-05-07 11:48:32.392
30.0, 37.5542054050602, -68.90952663356438, -16.190026908181608, 22.372081534937024, 0.01600000075995922, 1.0400000493973494, -0.04800000227987766, 0.0, 0.0, 0.0, 0.0, 0.0, 1.7151005123924751E9, 0.0, 2024-05-07 11:48:32.392
31.0, -43.36600993620232, 28.948695607017726, 66.34208531398326, -29.3843939518556, 0.01600000075995922, 1.0240000486373901, -0.04800000227987766, 0.0, 0.0, 0.0, 0.0, 0.0, 1.7151005124511368E9, 0.0, 2024-05-07 11:48:32.451
31.0, 20.058953412342817, 26.42052323697135, 61.90282406657934, 38.28535584639758, 0.01600000075995922, 1.0240000486373901, -0.04800000227987766, 0.0, 0.0, 0.0, 0.0, 0.0, 1.715100512451152E9, 0.0, 2024-05-07 11:48:32.451
32.0, 56.58281637961045, -71.33298180485144, -8.83738359529525, 37.657052653841674, 0.01600000075995922, 1.0240000486373901, -0.04800000227987766, 0.0, 0.0, 0.0, 0.0, 0.0, 1.7151005124515817E9, 0.0, 2024-05-07 11:48:32.451
32.0, -5.320007686968893, -12.100446306634694, 35.6823854772374, -13.235505943186581, 0.01600000075995922, 1.0240000486373901, -0.04800000227987766, 0.0, 0.0, 0.0, 0.0, 0.0, 1.7151005124515908E9, 0.0, 2024-05-07 11:48:32.451
33.0, -27.2171219275333, 62.16274711349979, 72.27356664370745, -0.845217389985919, 0.01600000075995922, 1.0240000486373901, -0.04800000227987766, 0.0, 0.0, 0.0, 0.0, 0.0, 1.715100512452138E9, 0.0, 2024-05-07 11:48:32.452
33.0, 67.2003923538141, -61.32126962346956, 13.523478239774704, 50.62702570017427, 0.01600000075995922, 1.0240000486373901, -0.04800000227987766, 0.0, 0.0, 0.0, 0.0, 0.0, 1.715100512452146E9, 0.0, 2024-05-07 11:48:32.452
34.0, 8.080053854268044, -58.404147658031434, 13.830150036141276, 9.2637321902439, 0.01600000075995922, 1.0240000486373901, -0.04800000227987766, 0.0, 0.0, 0.0, 0.0, 0.0, 1.7151005124528544E9, 0.0, 2024-05-07 11:48:32.452
34.0, -55.584263091441244, 57.38689487008378, 86.01769898086786, -28.161446666345, 0.01600000075995922, 1.0240000486373901, -0.04800000227987766, 0.0, 0.0, 0.0, 0.0, 0.0, 1.7151005124528632E9, 0.0, 2024-05-07 11:48:32.452
35.0, 57.36071557039395, -30.38855708995834, 23.849342017434537, 52.29502108041197, 0.01600000075995922, 1.0240000486373901, -0.04800000227987766, 0.0, 0.0, 0.0, 0.0, 0.0, 1.7151005124535143E9, 0.0, 2024-05-07 11:48:32.453
35.0, 41.68679485609755, -70.80191601114348, 5.7744055315852165, 17.158660996705294, 0.01600000075995922, 1.0240000486373901, -0.04800000227987766, 0.0, 0.0, 0.0, 0.0, 0.0, 1.715100512453524E9, 0.0, 2024-05-07 11:48:32.453
36.0, -46.02881870465353, 31.286133079323918, 68.08113879337907, -25.659453595988452, 0.01600000075995922, 1.0240000486373901, -0.04800000227987766, 0.0, 0.0, 0.0, 0.0, 0.0, 1.7151005124543707E9, 0.0, 2024-05-07 11:48:32.454
36.0, 19.733582116197795, 33.16356285708025, 50.83272019773722, 37.45883795619011, 0.01600000075995922, 1.0240000486373901, -0.04800000227987766, 0.0, 0.0, 0.0, 0.0, 0.0, 1.7151005124543796E9, 0.0, 2024-05-07 11:48:32.454
37.0, 54.65676790243015, -67.6417005485855, -11.361816065385938, 30.98507113289088, 0.01600000075995922, 1.0240000486373901, -0.04800000227987766, 0.0, 0.0, 0.0, 0.0, 0.0, 1.715100512481047E9, 0.0, 2024-05-07 11:48:32.481
37.0, -16.72670255182311, -22.014921089168638, 56.25931503344327, -9.933174282312393, 0.01600000075995922, 1.0240000486373901, -0.04800000227987766, 0.0, 0.0, 0.0, 0.0, 0.0, 1.7151005124810624E9, 0.0, 2024-05-07 11:48:32.481
38.0, -27.258260827045888, 61.70273941894993, 86.31315107736737, -12.779238148592412, 0.01600000075995922, 1.0240000486373901, -0.04800000227987766, 0.0, 0.0, 0.0, 0.0, 0.0, 1.7151005124816515E9, 0.0, 2024-05-07 11:48:32.481
38.0, 73.16179288318381, -56.90070787584409, 6.43262792378664, 56.79412072710693, 0.01600000075995922, 1.0240000486373901, -0.04800000227987766, 0.0, 0.0, 0.0, 0.0, 0.0, 1.7151005124816663E9, 0.0, 2024-05-07 11:48:32.481
39.0, 20.806933403480798, -46.0774374040775, 9.757398984394968, 2.969480564817786, 0.01600000075995922, 1.0240000486373901, -0.04800000227987766, 0.0, 0.0, 0.0, 0.0, 0.0, 1.7151005124825609E9, 0.0, 2024-05-07 11:48:32.482
39.0, -58.785617453511804, 66.99843775620684, 80.41532884724438, -19.952366263605654, 0.01600000075995922, 1.0240000486373901, -0.04800000227987766, 0.0, 0.0, 0.0, 0.0, 0.0, 1.7151005124825747E9, 0.0, 2024-05-07 11:48:32.482
40.0, 52.40160822914913, -23.327625973615795, 25.558476297184825, 58.903424302116036, 0.01600000075995922, 1.0240000486373901, -0.04800000227987766, 0.0, 0.0, 0.0, 0.0, 0.0, 1.7151005125118272E9, 0.0, 2024-05-07 11:48:32.511
40.0, 39.872943377587944, -57.02786447433755, -12.91387454699725, 29.298376252874732, 0.01600000075995922, 1.0240000486373901, -0.04800000227987766, 0.0, 0.0, 0.0, 0.0, 0.0, 1.7151005125118592E9, 0.0, 2024-05-07 11:48:32.511
41.0, -42.96210074098781, 39.491473582107574, 58.31999990902841, -20.58814925607294, 0.01600000075995922, 1.0240000486373901, -0.04800000227987766, 0.0, 0.0, 0.0, 0.0, 0.0, 1.7151005125119717E9, 0.0, 2024-05-07 11:48:32.511
41.0, 22.456229283940047, 26.686056133825332, 50.38767210301012, 36.90159286279231, 0.01600000075995922, 1.0240000486373901, -0.04800000227987766, 0.0, 0.0, 0.0, 0.0, 0.0, 1.7151005125119865E9, 0.0, 2024-05-07 11:48:32.511
42.0, 55.135475096758455, -72.7952826875262, -2.457114270888269, 35.68612537719309, 0.03200000151991844, 1.0240000486373901, -0.04800000227987766, 0.0, 0.0, 0.0, 0.0, 0.0, 1.7151005125124528E9, 0.0, 2024-05-07 11:48:32.512
42.0, -8.977629843633622, -18.68641012860462, 48.132512429729104, -9.813497483730316, 0.03200000151991844, 1.0240000486373901, -0.04800000227987766, 0.0, 0.0, 0.0, 0.0, 0.0, 1.7151005125124693E9, 0.0, 2024-05-07 11:48:32.512
43.0, -23.727795268874615, 56.302323882933706, 66.87315110769123, 3.9194151535630226, 0.03200000151991844, 1.0240000486373901, -0.04800000227987766, 0.0, 0.0, 0.0, 0.0, 0.0, 1.7151005125411112E9, 0.0, 2024-05-07 11:48:32.541
43.0, 66.97225845651701, -68.70757203595713, -1.088310887105763, 55.47767594270408, 0.03200000151991844, 1.0240000486373901, -0.04800000227987766, 0.0, 0.0, 0.0, 0.0, 0.0, 1.715100512541128E9, 0.0, 2024-05-07 11:48:32.541
44.0, 17.90477103786543, -45.18360131466761, 7.124509415589273, 8.605509798042476, 0.03200000151991844, 1.0240000486373901, -0.04800000227987766, 0.0, 0.0, 0.0, 0.0, 0.0, 1.715100512541778E9, 0.0, 2024-05-07 11:48:32.541
44.0, -59.514897944871336, 63.553989897016436, 84.38336270023137, -28.281123464927077, 0.03200000151991844, 1.0240000486373901, -0.04800000227987766, 0.0, 0.0, 0.0, 0.0, 0.0, 1.7151005125417948E9, 0.0, 2024-05-07 11:48:32.541
45.0, 52.274451630655676, -23.52210077131167, 33.47958440333605, 50.85141969751567, 0.03200000151991844, 1.0240000486373901, -0.04800000227987766, 0.0, 0.0, 0.0, 0.0, 0.0, 1.7151005125709996E9, 0.0, 2024-05-07 11:48:32.570
45.0, 36.9633012120612, -71.90892639802769, -12.816637148149312, 32.9784378092736, 0.03200000151991844, 1.0240000486373901, -0.04800000227987766, 0.0, 0.0, 0.0, 0.0, 0.0, 1.7151005125710125E9, 0.0, 2024-05-07 11:48:32.571
46.0, -44.97416691714898, 29.60317809926346, 62.68446315731853, -31.931265821680427, 0.03200000151991844, 1.0240000486373901, -0.04800000227987766, 0.0, 0.0, 0.0, 0.0, 0.0, 1.7151005125715833E9, 0.0, 2024-05-07 11:48:32.571
46.0, 21.697029592934996, 21.214582498650998, 49.45269711408764, 32.13696031924337, 0.03200000151991844, 1.0240000486373901, -0.04800000227987766, 0.0, 0.0, 0.0, 0.0, 0.0, 1.715100512571597E9, 0.0, 2024-05-07 11:48:32.571
47.0, 60.019784438889474, -82.7995150689967, -7.64435550943017, 27.36858787573874, 0.03200000151991844, 1.0240000486373901, -0.04800000227987766, 0.0, 0.0, 0.0, 0.0, 0.0, 1.715100512572247E9, 0.0, 2024-05-07 11:48:32.572
47.0, -9.691950735170394, -12.964363196399063, 35.89929967466742, -3.8782762540504336, 0.03200000151991844, 1.0240000486373901, -0.04800000227987766, 0.0, 0.0, 0.0, 0.0, 0.0, 1.715100512572259E9, 0.0, 2024-05-07 11:48:32.572
48.0, -32.93916885973886, 57.83942276472226, 80.98753354046494, -7.453620611689985, 0.03200000151991844, 1.0240000486373901, -0.04800000227987766, 0.0, 0.0, 0.0, 0.0, 0.0, 1.7151005125731704E9, 0.0, 2024-05-07 11:48:32.573
48.0, 66.5309502617456, -62.31608301168308, 2.853543666191399, 55.84792603831738, 0.03200000151991844, 1.0240000486373901, -0.04800000227987766, 0.0, 0.0, 0.0, 0.0, 0.0, 1.7151005125731804E9, 0.0, 2024-05-07 11:48:32.573
49.0, 8.304447851609439, -47.038591692689806, 32.357614416629076, -13.643155038356781, 0.03200000151991844, 1.0240000486373901, -0.04800000227987766, 0.0, 0.0, 0.0, 0.0, 0.0, 1.71510051263165E9, 0.0, 2024-05-07 11:48:32.631
49.0, -59.32790294708684, 68.3485416402109, 84.35344350058585, -25.74921119492501, 0.03200000151991844, 1.0240000486373901, -0.04800000227987766, 0.0, 0.0, 0.0, 0.0, 0.0, 1.7151005126316826E9, 0.0, 2024-05-07 11:48:32.631
50.0, 55.516944892238826, -14.449103478807956, 20.853682152926922, 57.63559821713716, 0.03200000151991844, 1.0240000486373901, -0.04800000227987766, 0.0, 0.0, 0.0, 0.0, 0.0, 1.715100512631853E9, 0.0, 2024-05-07 11:48:32.631
50.0, 35.92734892433509, -70.55882251402363, -4.237306649796665, 12.610942650586367, 0.03200000151991844, 1.0240000486373901, -0.04800000227987766, 0.0, 0.0, 0.0, 0.0, 0.0, 1.7151005126318688E9, 0.0, 2024-05-07 11:48:32.631
51.0, -45.078884115908295, 29.60317809926346, 61.397937572561204, -31.620854125358164, 0.03200000151991844, 1.0240000486373901, -0.04800000227987766, 0.0, 0.0, 0.0, 0.0, 0.0, 1.715100512632454E9, 0.0, 2024-05-07 11:48:32.632
51.0, 19.15015772311017, 27.340538626071066, 54.31456705648452, 42.35062709823251, 0.03200000151991844, 1.0240000486373901, -0.04800000227987766, 0.0, 0.0, 0.0, 0.0, 0.0, 1.7151005126324744E9, 0.0, 2024-05-07 11:48:32.632
52.0, 60.99963822728023, -72.496090691071, -3.911935353651643, 38.412512444891036, 0.01600000075995922, 1.0240000486373901, -0.04800000227987766, 0.0, 0.0, 0.0, 0.0, 0.0, 1.7151005126329513E9, 0.0, 2024-05-07 11:48:32.632
52.0, -6.483116573188454, -0.15520584816113114, 30.431565939448774, -20.775144253857434, 0.01600000075995922, 1.0240000486373901, -0.04800000227987766, 0.0, 0.0, 0.0, 0.0, 0.0, 1.7151005126329818E9, 0.0, 2024-05-07 11:48:32.632
53.0, -28.503647512290627, 65.34914187574759, 64.49083483591676, 2.3449172722175717, 0.01600000075995922, 1.0240000486373901, -0.04800000227987766, 0.0, 0.0, 0.0, 0.0, 0.0, 1.715100512633636E9, 0.0, 2024-05-07 11:48:32.633
53.0, 63.24731810064986, -50.64011535001919, 1.6717352801933885, 49.03008841909468, 0.01600000075995922, 1.0240000486373901, -0.04800000227987766, 0.0, 0.0, 0.0, 0.0, 0.0, 1.7151005126336524E9, 0.0, 2024-05-07 11:48:32.633
54.0, 19.05666022421792, -33.72828775038943, 2.3523970721289515, -6.077337427996099, 0.01600000075995922, 1.0240000486373901, -0.04800000227987766, 0.0, 0.0, 0.0, 0.0, 0.0, 1.715100512634843E9, 0.0, 2024-05-07 11:48:32.634
54.0, -49.503185763489455, 73.98457087343559, 61.730788668617606, -15.961893010884523, 0.01600000075995922, 1.0240000486373901, -0.04800000227987766, 0.0, 0.0, 0.0, 0.0, 0.0, 1.715100512634862E9, 0.0, 2024-05-07 11:48:32.634
55.0, 55.191573596093804, -18.394697932060808, 36.50890336744487, 59.20635619852692, 0.01600000075995922, 1.0240000486373901, -0.04800000227987766, 0.0, 0.0, 0.0, 0.0, 0.0, 1.7151005126610277E9, 0.0, 2024-05-07 11:48:32.661
55.0, 44.96294721728191, -64.24961128877476, -0.7442400911822915, 27.39476717542857, 0.01600000075995922, 1.0240000486373901, -0.04800000227987766, 0.0, 0.0, 0.0, 0.0, 0.0, 1.715100512661042E9, 0.0, 2024-05-07 11:48:32.661
56.0, -37.456968006212264, 37.875836801249534, 65.82223922014236, -22.704932630993426, 0.01600000075995922, 1.0240000486373901, -0.04800000227987766, 0.0, 0.0, 0.0, 0.0, 0.0, 1.715100512661822E9, 0.0, 2024-05-07 11:48:32.661
56.0, 20.545140406582505, 33.69836855074391, 56.61086562927812, 30.872874134220183, 0.01600000075995922, 1.0240000486373901, -0.04800000227987766, 0.0, 0.0, 0.0, 0.0, 0.0, 1.7151005126618395E9, 0.0, 2024-05-07 11:48:32.661
57.0, 54.4510734048672, -71.39656010409817, -7.670534809119999, 48.536421624943614, 0.01600000075995922, 1.0240000486373901, -0.04800000227987766, 0.0, 0.0, 0.0, 0.0, 0.0, 1.715100512662592E9, 0.0, 2024-05-07 11:48:32.662
57.0, -12.059307407122105, -10.608226224314421, 29.556429349817336, -3.051758363842964, 0.01600000075995922, 1.0240000486373901, -0.04800000227987766, 0.0, 0.0, 0.0, 0.0, 0.0, 1.7151005126626072E9, 0.0, 2024-05-07 11:48:32.662
58.0, -34.46878794161603, 66.53469016170129, 70.97582135908306, -1.6642554802820086, 0.01600000075995922, 1.0240000486373901, -0.04800000227987766, 0.0, 0.0, 0.0, 0.0, 0.0, 1.7151005126913452E9, 0.0, 2024-05-07 11:48:32.691
58.0, 66.13078096648678, -50.2287263548933, 9.117876091971993, 49.703270411118865, 0.01600000075995922, 1.0240000486373901, -0.04800000227987766, 0.0, 0.0, 0.0, 0.0, 0.0, 1.715100512691373E9, 0.0, 2024-05-07 11:48:32.691
59.0, 14.609919176902622, -31.080438581760973, -0.6245632926002145, 8.541931498795748, 0.01600000075995922, 1.0240000486373901, -0.04800000227987766, 0.0, 0.0, 0.0, 0.0, 0.0, 1.7151005126919277E9, 0.0, 2024-05-07 11:48:32.691
59.0, -53.35528271785006, 73.6853788769804, 73.75830692611635, -29.500330850481987, 0.01600000075995922, 1.0240000486373901, -0.04800000227987766, 0.0, 0.0, 0.0, 0.0, 0.0, 1.7151005126919472E9, 0.0, 2024-05-07 11:48:32.691
60.0, 53.7853712127544, -22.00370138930157, 40.70133121777326, 58.09560591168702, 0.01600000075995922, 1.0240000486373901, -0.03200000151991844, 0.0, 0.0, 0.0, 0.0, 0.0, 1.715100512692499E9, 0.0, 2024-05-07 11:48:32.692
60.0, 39.64480948029086, -65.43141967477277, 22.013051139190793, 24.810496306046844, 0.01600000075995922, 1.0240000486373901, -0.03200000151991844, 0.0, 0.0, 0.0, 0.0, 0.0, 1.715100512692512E9, 0.0, 2024-05-07 11:48:32.692
61.0, -40.98369366442785, 38.38446319522336, 71.20395525638014, -32.73908421210945, 0.01600000075995922, 1.0400000493973494, -0.03200000151991844, 0.0, 0.0, 0.0, 0.0, 0.0, 1.7151005127211635E9, 0.0, 2024-05-07 11:48:32.721
61.0, 16.655644452665, 19.651304317172617, 59.43822999577969, 34.98676408547908, 0.01600000075995922, 1.0400000493973494, -0.03200000151991844, 0.0, 0.0, 0.0, 0.0, 0.0, 1.7151005127211792E9, 0.0, 2024-05-07 11:48:32.721
62.0, 51.545171139296144, -64.1972526893951, -3.814697954803705, 26.029703691601753, 0.01600000075995922, 1.0400000493973494, -0.03200000151991844, 0.0, 0.0, 0.0, 0.0, 0.0, 1.7151005127511635E9, 0.0, 2024-05-07 11:48:32.751
62.0, -7.160038465168327, -8.480223149526864, 49.90522500872612, -1.2192073855549097, 0.01600000075995922, 1.0400000493973494, -0.03200000151991844, 0.0, 0.0, 0.0, 0.0, 0.0, 1.7151005127511816E9, 0.0, 2024-05-07 11:48:32.751
63.0, -29.57325889961794, 75.6862253532745, 63.10707185231149, -1.006033088080585, 0.01600000075995922, 1.0400000493973494, -0.03200000151991844, 0.0, 0.0, 0.0, 0.0, 0.0, 1.7151005127515173E9, 0.0, 2024-05-07 11:48:32.751
63.0, 65.77175057074055, -48.740246172528714, -2.7226471677422523, 54.77831465099007, 0.01600000075995922, 1.0400000493973494, -0.03200000151991844, 0.0, 0.0, 0.0, 0.0, 0.0, 1.7151005127515273E9, 0.0, 2024-05-07 11:48:32.751
64.0, 20.79197380365804, -45.75954590784386, 22.832089229486883, 10.310904177837074, 0.01600000075995922, 1.0400000493973494, -0.03200000151991844, 0.0, 0.0, 0.0, 0.0, 0.0, 1.7151005127523818E9, 0.0, 2024-05-07 11:48:32.752
64.0, -57.76462476560846, 74.98686406156048, 61.779407368041575, -25.210665601305664, 0.01600000075995922, 1.0400000493973494, -0.03200000151991844, 0.0, 0.0, 0.0, 0.0, 0.0, 1.7151005127524083E9, 0.0, 2024-05-07 11:48:32.752
65.0, 51.481592840049416, -11.10189301846549, 0.4300884949043393, 56.00874173641205, 0.01600000075995922, 1.0400000493973494, -0.03200000151991844, 0.0, 0.0, 0.0, 0.0, 0.0, 1.7151005127529433E9, 0.0, 2024-05-07 11:48:32.752
65.0, 33.17852245690301, -56.317283482756466, 2.1953212739899755, 26.20921888947487, 0.01600000075995922, 1.0400000493973494, -0.03200000151991844, 0.0, 0.0, 0.0, 0.0, 0.0, 1.715100512752956E9, 0.0, 2024-05-07 11:48:32.752
66.0, -38.246086896862835, 50.90190834691748, 52.44461707863957, -25.947425892576575, 0.01600000075995922, 1.0400000493973494, -0.03200000151991844, 0.0, 0.0, 0.0, 0.0, 0.0, 1.7151005127539945E9, 0.0, 2024-05-07 11:48:32.753
66.0, 18.798607127275318, 30.579291987698525, 40.66019231826067, 32.88868021033704, 0.01600000075995922, 1.0400000493973494, -0.03200000151991844, 0.0, 0.0, 0.0, 0.0, 0.0, 1.7151005127540374E9, 0.0, 2024-05-07 11:48:32.754
67.0, 51.70598683739081, -70.05767591996118, -16.347102706320584, 33.214051506482065, 0.01600000075995922, 1.0400000493973494, -0.03200000151991844, 0.0, 0.0, 0.0, 0.0, 0.0, 1.7151005127809644E9, 0.0, 2024-05-07 11:48:32.780
67.0, -11.950850308407098, 5.312527887057513, 6.918814918026328, -7.812651007436216, 0.01600000075995922, 1.0400000493973494, -0.03200000151991844, 0.0, 0.0, 0.0, 0.0, 0.0, 1.715100512780976E9, 0.0, 2024-05-07 11:48:32.780
68.0, -25.16391685185954, 58.800577053334564, 85.09768359176815, 3.7997383549809456, 0.01600000075995922, 1.0400000493973494, -0.03200000151991844, 0.0, 0.0, 0.0, 0.0, 0.0, 1.715100512781571E9, 0.0, 2024-05-07 11:48:32.781
68.0, 69.62758742505684, -55.6366216908209, 3.747379755601287, 54.71473635174334, 0.01600000075995922, 1.0400000493973494, -0.03200000151991844, 0.0, 0.0, 0.0, 0.0, 0.0, 1.7151005127815845E9, 0.0, 2024-05-07 11:48:32.781
69.0, 20.193589810747653, -24.961962254252285, 20.87986145261675, -6.866456318646669, 0.01600000075995922, 1.0400000493973494, -0.03200000151991844, 0.0, 0.0, 0.0, 0.0, 0.0, 1.7151005127824233E9, 0.0, 2024-05-07 11:48:32.782
69.0, -49.79489796003327, 85.76899563381448, 75.80029230192304, -24.57862250879407, 0.01600000075995922, 1.0400000493973494, -0.03200000151991844, 0.0, 0.0, 0.0, 0.0, 0.0, 1.7151005127824347E9, 0.0, 2024-05-07 11:48:32.782
70.0, 53.25804531900212, -5.349926886614412, 13.871288935653865, 47.698684034869075, 0.01600000075995922, 1.0400000493973494, -0.04800000227987766, 0.0, 0.0, 0.0, 0.0, 0.0, 1.7151005128112984E9, 0.0, 2024-05-07 11:48:32.811
70.0, 49.18529426725581, -53.8601692118682, -4.955367441289127, 21.250111548230052, 0.01600000075995922, 1.0400000493973494, -0.04800000227987766, 0.0, 0.0, 0.0, 0.0, 0.0, 1.7151005128113177E9, 0.0, 2024-05-07 11:48:32.811
71.0, -43.36600993620232, 47.30786448949948, 41.96541740279645, -24.874074605293572, 0.01600000075995922, 1.0240000486373901, -0.04800000227987766, 0.0, 0.0, 0.0, 0.0, 0.0, 1.7151005128116944E9, 0.0, 2024-05-07 11:48:32.811
71.0, 14.841792974155396, 44.95546741737053, 42.9452711911872, 30.59238163754344, 0.01600000075995922, 1.0240000486373901, -0.04800000227987766, 0.0, 0.0, 0.0, 0.0, 0.0, 1.71510051281171E9, 0.0, 2024-05-07 11:48:32.811
72.0, 57.70478636631742, -61.39980752253905, -22.98168522771448, 46.898345444351435, 0.01600000075995922, 1.0240000486373901, -0.04800000227987766, 0.0, 0.0, 0.0, 0.0, 0.0, 1.7151005128127644E9, 0.0, 2024-05-07 11:48:32.812
72.0, -6.2175836763344705, 14.366825679782778, 8.310057701542974, 0.8227779902517796, 0.01600000075995922, 1.0240000486373901, -0.04800000227987766, 0.0, 0.0, 0.0, 0.0, 0.0, 1.7151005128127923E9, 0.0, 2024-05-07 11:48:32.812
73.0, -30.75132738566026, 69.33213532855734, 65.26873402670026, -5.722046932205558, 0.01600000075995922, 1.0240000486373901, -0.04800000227987766, 0.0, 0.0, 0.0, 0.0, 0.0, 1.7151005128410428E9, 0.0, 2024-05-07 11:48:32.841
73.0, 67.37616765173152, -53.938707110937685, -4.955367441289127, 55.15230464655906, 0.01600000075995922, 1.0240000486373901, -0.04800000227987766, 0.0, 0.0, 0.0, 0.0, 0.0, 1.7151005128410673E9, 0.0, 2024-05-07 11:48:32.841
74.0, 14.520161577966064, -42.75640624342486, -3.257452861405909, -8.03330510482192, 0.01600000075995922, 1.0240000486373901, -0.04800000227987766, 0.0, 0.0, 0.0, 0.0, 0.0, 1.715100512841734E9, 0.0, 2024-05-07 11:48:32.841
74.0, -47.524778686929494, 77.34674093360081, 76.30517879594117, -22.775990730151534, 0.01600000075995922, 1.0240000486373901, -0.04800000227987766, 0.0, 0.0, 0.0, 0.0, 0.0, 1.7151005128417487E9, 0.0, 2024-05-07 11:48:32.841
75.0, 51.919161134865135, -26.566379335243255, 23.81568291783333, 48.143732129596174, 0.01600000075995922, 1.0240000486373901, -0.04800000227987766, 0.0, 0.0, 0.0, 0.0, 0.0, 1.7151005128425102E9, 0.0, 2024-05-07 11:48:32.842
75.0, 43.55300493398681, -68.11666784295812, -21.72881874255836, 24.4926048098132, 0.01600000075995922, 1.0240000486373901, -0.04800000227987766, 0.0, 0.0, 0.0, 0.0, 0.0, 1.715100512842523E9, 0.0, 2024-05-07 11:48:32.842
76.0, -41.398822559509426, 42.273959149140865, 61.805586667731404, -22.89566752873361, 0.01600000075995922, 1.0240000486373901, -0.04800000227987766, 0.0, 0.0, 0.0, 0.0, 0.0, 1.7151005128711133E9, 0.0, 2024-05-07 11:48:32.871
76.0, 16.476129254791886, 24.75626775668934, 35.192458583042026, 25.958645592443645, 0.01600000075995922, 1.0240000486373901, -0.04800000227987766, 0.0, 0.0, 0.0, 0.0, 0.0, 1.7151005128711324E9, 0.0, 2024-05-07 11:48:32.871
77.0, 53.85642931191251, -56.86704877624288, -15.004478622227907, 33.36364750470966, 0.01600000075995922, 1.0240000486373901, -0.04800000227987766, 0.0, 0.0, 0.0, 0.0, 0.0, 1.7151005128716896E9, 0.0, 2024-05-07 11:48:32.871
77.0, -17.747695239726454, -1.5913274311460555, 17.798183889128268, -7.360123112797737, 0.01600000075995922, 1.0240000486373901, -0.04800000227987766, 0.0, 0.0, 0.0, 0.0, 0.0, 1.7151005128717096E9, 0.0, 2024-05-07 11:48:32.871
78.0, -34.34537124307826, 59.978645539376885, 64.86856473144144, -4.510319346562028, 0.01600000075995922, 1.0240000486373901, -0.04800000227987766, 0.0, 0.0, 0.0, 0.0, 0.0, 1.7151005128725288E9, 0.0, 2024-05-07 11:48:32.872
78.0, 64.58620228478685, -54.40993450535461, -5.351796836592257, 55.20466324593872, 0.01600000075995922, 1.0240000486373901, -0.04800000227987766, 0.0, 0.0, 0.0, 0.0, 0.0, 1.7151005128725412E9, 0.0, 2024-05-07 11:48:32.872
79.0, 16.853859150316566, -40.70694106770679, 39.29886873438954, 13.549657539464533, 0.01600000075995922, 1.0240000486373901, -0.04800000227987766, 0.0, 0.0, 0.0, 0.0, 0.0, 1.7151005129014564E9, 0.0, 2024-05-07 11:48:32.901
79.0, -56.354682482313365, 72.75414378801361, 78.1863484736532, -26.52711038570851, 0.01600000075995922, 1.0240000486373901, -0.04800000227987766, 0.0, 0.0, 0.0, 0.0, 0.0, 1.715100512901476E9, 0.0, 2024-05-07 11:48:32.901
80.0, 52.96259322250262, -16.995975348632783, 28.269903765060008, 52.85226617380977, 0.01600000075995922, 1.0240000486373901, -0.04800000227987766, 0.0, 0.0, 0.0, 0.0, 0.0, 1.71510051290175E9, 0.0, 2024-05-07 11:48:32.901
80.0, 34.36033084290102, -59.8253096411936, -18.396567882038653, -0.2094343975186348, 0.01600000075995922, 1.0240000486373901, -0.04800000227987766, 0.0, 0.0, 0.0, 0.0, 0.0, 1.7151005129017591E9, 0.0, 2024-05-07 11:48:32.901
81.0, -39.854243877809495, 36.596791016403586, 59.6588840931654, -28.57283566147089, 0.01600000075995922, 1.0240000486373901, -0.04800000227987766, 0.0, 0.0, 0.0, 0.0, 0.0, 1.7151005129026203E9, 0.0, 2024-05-07 11:48:32.902
81.0, 17.88607153808698, 17.197929946240038, 56.0648402357474, 29.79578294698149, 0.01600000075995922, 1.0240000486373901, -0.04800000227987766, 0.0, 0.0, 0.0, 0.0, 0.0, 1.7151005129026392E9, 0.0, 2024-05-07 11:48:32.902
82.0, 62.51803760929033, -68.3859406397678, -5.355536736547947, 36.2022315710783, 0.01600000075995922, 1.0240000486373901, -0.04800000227987766, 0.0, 0.0, 0.0, 0.0, 0.0, 1.7151005129315395E9, 0.0, 2024-05-07 11:48:32.931
82.0, -7.537768360693008, -12.321100404020399, 36.5350826671347, -16.332143106497824, 0.01600000075995922, 1.0240000486373901, -0.04800000227987766, 0.0, 0.0, 0.0, 0.0, 0.0, 1.7151005129315639E9, 0.0, 2024-05-07 11:48:32.931
83.0, -35.99092722358182, 63.542770197149366, 68.88147738389671, -10.370742577128112, 0.01600000075995922, 1.0240000486373901, -0.04800000227987766, 0.0, 0.0, 0.0, 0.0, 0.0, 1.715100512931624E9, 0.0, 2024-05-07 11:48:32.931
83.0, 64.35806838748977, -52.97755282232538, 2.5543516697362065, 56.147118034772575, 0.01600000075995922, 1.0240000486373901, -0.04800000227987766, 0.0, 0.0, 0.0, 0.0, 0.0, 1.7151005129316363E9, 0.0, 2024-05-07 11:48:32.931
84.0, 24.70764905726537, -28.518607112113386, 12.06865715701133, 7.820130807347596, 0.01600000075995922, 1.0240000486373901, -0.04800000227987766, 0.0, 0.0, 0.0, 0.0, 0.0, 1.715100512932493E9, 0.0, 2024-05-07 11:48:32.932
84.0, -54.91482099937275, 69.21619842993096, 77.76747967861593, -21.36230854690075, 0.01600000075995922, 1.0240000486373901, -0.04800000227987766, 0.0, 0.0, 0.0, 0.0, 0.0, 1.7151005129325092E9, 0.0, 2024-05-07 11:48:32.932
85.0, 56.95306647522375, -10.855059621389955, 21.37352824676782, 61.53631387092173, 0.01600000075995922, 1.0240000486373901, -0.04800000227987766, 0.0, 0.0, 0.0, 0.0, 0.0, 1.7151005129613955E9, 0.0, 2024-05-07 11:48:32.961
85.0, 38.642516292165965, -56.44444008124992, -2.258899573236704, 21.612881843931973, 0.01600000075995922, 1.0240000486373901, -0.04800000227987766, 0.0, 0.0, 0.0, 0.0, 0.0, 1.7151005129614103E9, 0.0, 2024-05-07 11:48:32.961
86.0, -43.17153513850644, 40.05993837537244, 50.548487801104784, -25.580915696918964, 0.01600000075995922, 1.0240000486373901, -0.04800000227987766, 0.0, 0.0, 0.0, 0.0, 0.0, 1.7151005129616754E9, 0.0, 2024-05-07 11:48:32.961
86.0, 13.342093091923743, 38.79585219034925, 35.644986477680504, 31.35532122850418, 0.01600000075995922, 1.0240000486373901, -0.04800000227987766, 0.0, 0.0, 0.0, 0.0, 0.0, 1.715100512961687E9, 0.0, 2024-05-07 11:48:32.961
87.0, 59.211966048460454, -60.64808763144538, -10.280984978191555, 31.463778327219188, 0.01600000075995922, 1.0240000486373901, -0.04800000227987766, 0.0, 0.0, 0.0, 0.0, 0.0, 1.715100512962694E9, 0.0, 2024-05-07 11:48:32.962
87.0, -16.165717558469623, -9.000069243367761, 31.74801072385162, -5.381716036237776, 0.01600000075995922, 1.0240000486373901, -0.04800000227987766, 0.0, 0.0, 0.0, 0.0, 0.0, 1.7151005129627087E9, 0.0, 2024-05-07 11:48:32.962
88.0, -33.032666358631104, 65.18084637774155, 62.49372825957835, 2.5244324700906873, 0.01600000075995922, 1.0240000486373901, -0.04800000227987766, 0.0, 0.0, 0.0, 0.0, 0.0, 1.7151005129912372E9, 0.0, 2024-05-07 11:48:32.991
88.0, 64.65726038394496, -41.858830254059285, -2.7675259672105312, 51.655498187989, 0.01600000075995922, 1.0240000486373901, -0.04800000227987766, 0.0, 0.0, 0.0, 0.0, 0.0, 1.7151005129912703E9, 0.0, 2024-05-07 11:48:32.991
89.0, 18.428357031662017, -19.711142716463655, 26.744024583138525, 9.458206987939775, 0.01600000075995922, 1.0240000486373901, -0.04800000227987766, 0.0, 0.0, 0.0, 0.0, 0.0, 1.7151005129918308E9, 0.0, 2024-05-07 11:48:32.991
89.0, -51.42549434071407, 78.75294331694022, 72.40820304211229, -18.8603154765442, 0.01600000075995922, 1.0240000486373901, -0.04800000227987766, 0.0, 0.0, 0.0, 0.0, 0.0, 1.7151005129918542E9, 0.0, 2024-05-07 11:48:32.991
90.0, 46.698260796722025, -17.190450146328658, 33.73763750027865, 54.969049548730254, 0.01600000075995922, 1.0240000486373901, -0.03200000151991844, 0.0, 0.0, 0.0, 0.0, 0.0, 1.7151005129924242E9, 0.0, 2024-05-07 11:48:32.992
90.0, 36.39857631875202, -52.15851473202929, -9.308610989712179, 32.825101911090314, 0.01600000075995922, 1.0240000486373901, -0.03200000151991844, 0.0, 0.0, 0.0, 0.0, 0.0, 1.715100512992432E9, 0.0, 2024-05-07 11:48:32.992
91.0, -42.82746434258297, 44.43188142357394, 58.35365900862962, -22.862008429132402, 0.01600000075995922, 1.0240000486373901, -0.03200000151991844, 0.0, 0.0, 0.0, 0.0, 0.0, 1.715100513021066E9, 0.0, 2024-05-07 11:48:33.021
91.0, 20.115051911678165, 32.65867636306211, 42.58998069539666, 35.29343588184565, 0.01600000075995922, 1.0240000486373901, -0.03200000151991844, 0.0, 0.0, 0.0, 0.0, 0.0, 1.715100513021082E9, 0.0, 2024-05-07 11:48:33.021
92.0, 59.09228924987838, -70.7196382121183, -11.907841458916664, 34.407079592347145, 0.01600000075995922, 1.0240000486373901, -0.03200000151991844, 0.0, 0.0, 0.0, 0.0, 0.0, 1.7151005130217555E9, 0.0, 2024-05-07 11:48:33.021
92.0, -10.802701022010297, -1.250996535178274, 38.793982240371406, 0.39642939530313015, 0.01600000075995922, 1.0240000486373901, -0.03200000151991844, 0.0, 0.0, 0.0, 0.0, 0.0, 1.7151005130217705E9, 0.0, 2024-05-07 11:48:33.021
93.0, -28.451288912910968, 76.87551353918388, 60.47044238355011, -2.2850788729265332, 0.01600000075995922, 1.0240000486373901, -0.03200000151991844, 0.0, 0.0, 0.0, 0.0, 0.0, 1.715100513022404E9, 0.0, 2024-05-07 11:48:33.022
93.0, 65.25190447689965, -58.06007686210796, 0.6283031925559044, 45.697837558574975, 0.01600000075995922, 1.0240000486373901, -0.03200000151991844, 0.0, 0.0, 0.0, 0.0, 0.0, 1.71510051302242E9, 0.0, 2024-05-07 11:48:33.022
94.0, 18.129165035206825, -38.5564985931851, 25.158307001926005, 9.308610989712179, 0.01600000075995922, 1.0240000486373901, -0.03200000151991844, 0.0, 0.0, 0.0, 0.0, 0.0, 1.715100513051649E9, 0.0, 2024-05-07 11:48:33.051
94.0, -53.112189220730215, 67.80999604659155, 81.38022303581238, -22.16264713741839, 0.01600000075995922, 1.0240000486373901, -0.03200000151991844, 0.0, 0.0, 0.0, 0.0, 0.0, 1.7151005130516632E9, 0.0, 2024-05-07 11:48:33.051
95.0, 52.08745663287118, -21.446456295903772, 29.137560554780066, 59.340992596931756, 0.01600000075995922, 1.0240000486373901, -0.03200000151991844, 0.0, 0.0, 0.0, 0.0, 0.0, 1.7151005130517528E9, 0.0, 2024-05-07 11:48:33.051
95.0, 43.68016153248027, -67.98951124446467, -1.5146594820544124, 12.401508253067732, 0.01600000075995922, 1.0240000486373901, -0.03200000151991844, 0.0, 0.0, 0.0, 0.0, 0.0, 1.7151005130517628E9, 0.0, 2024-05-07 11:48:33.051
96.0, -46.21207380248234, 21.89524429058656, 60.46670248359442, -23.965278916060925, 0.01600000075995922, 1.0240000486373901, -0.03200000151991844, 0.0, 0.0, 0.0, 0.0, 0.0, 1.715100513052412E9, 0.0, 2024-05-07 11:48:33.052
96.0, 14.041454383637756, 31.880777172278613, 42.20103110000491, 32.55208921432495, 0.01600000075995922, 1.0240000486373901, -0.03200000151991844, 0.0, 0.0, 0.0, 0.0, 0.0, 1.7151005130524232E9, 0.0, 2024-05-07 11:48:33.052
97.0, 61.994451615493745, -81.40827228548005, 1.9821469765156507, 41.49792990833521, 0.01600000075995922, 1.0240000486373901, -0.03200000151991844, 0.0, 0.0, 0.0, 0.0, 0.0, 1.715100513081226E9, 0.0, 2024-05-07 11:48:33.081
97.0, -3.7716891053132713, -17.628018441144377, 33.52072330284864, -20.1580607611686, 0.01600000075995922, 1.0240000486373901, -0.03200000151991844, 0.0, 0.0, 0.0, 0.0, 0.0, 1.7151005130812542E9, 0.0, 2024-05-07 11:48:33.081
98.0, -30.43717578938231, 71.69201220059767, 73.42545583005995, -2.333697572350502, 0.01600000075995922, 1.0240000486373901, -0.03200000151991844, 0.0, 0.0, 0.0, 0.0, 0.0, 1.7151005130818632E9, 0.0, 2024-05-07 11:48:33.081
98.0, 62.761131106410176, -48.661708273459226, 17.629888391122222, 51.98460938408971, 0.01600000075995922, 1.0240000486373901, -0.03200000151991844, 0.0, 0.0, 0.0, 0.0, 0.0, 1.71510051308188E9, 0.0, 2024-05-07 11:48:33.081
99.0, 13.626325488556176, -42.10566365113482, 23.912920316681266, 18.53120428044349, 0.01600000075995922, 1.0240000486373901, -0.03200000151991844, 0.0, 0.0, 0.0, 0.0, 0.0, 1.7151005130824676E9, 0.0, 2024-05-07 11:48:33.082
99.0, -50.98044624598697, 59.42140044597909, 78.66131576802582, -20.651727555319667, 0.01600000075995922, 1.0240000486373901, -0.03200000151991844, 0.0, 0.0, 0.0, 0.0, 0.0, 1.7151005130824811E9, 0.0, 2024-05-07 11:48:33.082
100.0, 50.58027695072815, -12.324840303976089, 20.831242753192782, 58.37609840836376, 0.01600000075995922, 1.0240000486373901, -0.03200000151991844, 0.0, 0.0, 0.0, 0.0, 0.0, 1.71510051311122E9, 0.0, 2024-05-07 11:48:33.111
100.0, 38.12267019832507, -70.65605991287157, 5.968880329281092, 15.6739207142964, 0.01600000075995922, 1.0240000486373901, -0.03200000151991844, 0.0, 0.0, 0.0, 0.0, 0.0, 1.7151005131112363E9, 0.0, 2024-05-07 11:48:33.111
0.0, -41.38386295968667, 34.580984940286726, 60.915490478277206, -27.864124619867653, 0.01600000075995922, 1.0240000486373901, -0.03200000151991844, 0.0, 0.0, 0.0, 0.0, 0.0, 1.7151005131115875E9, 0.0, 2024-05-07 11:48:33.111
1.0, 21.685809893067926, 22.833959179464728, 45.626779459416866, 33.22340125637129, 0.01600000075995922, 1.0240000486373901, -0.03200000151991844, 0.0, 0.0, 0.0, 0.0, 0.0, 1.7151005131124554E9, 0.0, 2024-05-07 11:48:33.112
1.0, 58.796837153378874, -67.60056164907292, -8.42599460016936, 38.42186219478026, 0.01600000075995922, 1.0240000486373901, -0.03200000151991844, 0.0, 0.0, 0.0, 0.0, 0.0, 1.7151005131124723E9, 0.0, 2024-05-07 11:48:33.112
2.0, -8.465263549704105, -14.781954574864358, 43.56235468387604, -18.31616003299132, 0.01600000075995922, 1.0240000486373901, -0.03200000151991844, 0.0, 0.0, 0.0, 0.0, 0.0, 1.715100513113212E9, 0.0, 2024-05-07 11:48:33.113
2.0, -34.667002639267594, 66.95355895673856, 66.61883791070431, -2.4739438206888735, 0.01600000075995922, 1.0240000486373901, -0.03200000151991844, 0.0, 0.0, 0.0, 0.0, 0.0, 1.7151005131132233E9, 0.0, 2024-05-07 11:48:33.113
3.0, 67.73519804747775, -44.637575921136886, 1.6567756803706288, 57.65242776693776, 0.01600000075995922, 1.0240000486373901, -0.03200000151991844, 0.0, 0.0, 0.0, 0.0, 0.0, 1.71510051314128E9, 0.0, 2024-05-07 11:48:33.141
3.0, 18.37225853232667, -27.50883412407711, 14.768864925019443, -2.5936206192709506, 0.01600000075995922, 1.0240000486373901, -0.03200000151991844, 0.0, 0.0, 0.0, 0.0, 0.0, 1.715100513141304E9, 0.0, 2024-05-07 11:48:33.141
4.0, -50.318483953829855, 63.965378892142326, 79.38311645947397, -29.838791796471924, 0.01600000075995922, 1.0240000486373901, -0.03200000151991844, 0.0, 0.0, 0.0, 0.0, 0.0, 1.715100513142054E9, 0.0, 2024-05-07 11:48:33.142
4.0, 50.348403153475374, -24.225201962981373, 31.878907222300768, 57.84316266467795, 0.01600000075995922, 1.0240000486373901, -0.03200000151991844, 0.0, 0.0, 0.0, 0.0, 0.0, 1.715100513142082E9, 0.0, 2024-05-07 11:48:33.142
5.0, 42.79006534302607, -56.16394758457318, -4.398122347891331, 11.004655619617552, 0.01600000075995922, 1.0240000486373901, -0.03200000151991844, 0.0, 0.0, 0.0, 0.0, 0.0, 1.7151005131715004E9, 0.0, 2024-05-07 11:48:33.171
5.0, -46.634682497475296, 35.52343972912058, 56.551027229987085, -27.482654824387282, 0.01600000075995922, 1.0240000486373901, -0.03200000151991844, 0.0, 0.0, 0.0, 0.0, 0.0, 1.7151005131715336E9, 0.0, 2024-05-07 11:48:33.171
6.0, 18.948203125502914, 30.882223884109408, 55.03636774793267, 31.906956471968442, 0.01600000075995922, 1.0240000486373901, -0.03200000151991844, 0.0, 0.0, 0.0, 0.0, 0.0, 1.7151005131716497E9, 0.0, 2024-05-07 11:48:33.171
6.0, 60.13198143756017, -65.35288177570328, -5.280738737434149, 42.42729504732415, 0.01600000075995922, 1.0240000486373901, -0.03200000151991844, 0.0, 0.0, 0.0, 0.0, 0.0, 1.7151005131716692E9, 0.0, 2024-05-07 11:48:33.171
7.0, -5.320007686968893, -10.383832226973027, 45.58190065994859, -2.126133124809712, 0.01600000075995922, 1.0240000486373901, -0.03200000151991844, 0.0, 0.0, 0.0, 0.0, 0.0, 1.7151005131724613E9, 0.0, 2024-05-07 11:48:33.172
7.0, -28.33909191424027, 78.502370019909, 64.6628702338785, -3.659492106642574, 0.01600000075995922, 1.0240000486373901, -0.03200000151991844, 0.0, 0.0, 0.0, 0.0, 0.0, 1.7151005131724813E9, 0.0, 2024-05-07 11:48:33.172
8.0, 67.88105414574966, -59.42140044597909, 8.224040002562106, 53.557237315457314, 0.01600000075995922, 1.0240000486373901, -0.03200000151991844, 0.0, 0.0, 0.0, 0.0, 0.0, 1.715100513173164E9, 0.0, 2024-05-07 11:48:33.173
8.0, 22.609565182123333, -36.181662121322006, -9.364709489047527, 12.137845306191593, 0.01600000075995922, 1.0240000486373901, -0.03200000151991844, 0.0, 0.0, 0.0, 0.0, 0.0, 1.715100513173184E9, 0.0, 2024-05-07 11:48:33.173
9.0, -54.64180830260739, 75.40573285659775, 81.23810683749616, -22.826479379553348, 0.01600000075995922, 1.0240000486373901, -0.03200000151991844, 0.0, 0.0, 0.0, 0.0, 0.0, 1.7151005132014472E9, 0.0, 2024-05-07 11:48:33.201
9.0, 54.59318960318342, -16.876298550050706, 17.850542488507926, 51.37313574133441, 0.01600000075995922, 1.0240000486373901, -0.03200000151991844, 0.0, 0.0, 0.0, 0.0, 0.0, 1.7151005132014787E9, 0.0, 2024-05-07 11:48:33.201
10.0, 43.60162363341078, -75.15889945952222, 0.44504809472709894, 26.603778334800154, 0.01600000075995922, 1.0240000486373901, -0.03200000151991844, 0.0, 0.0, 0.0, 0.0, 0.0, 1.715100513201991E9, 0.0, 2024-05-07 11:48:33.201
10.0, -41.9635474528186, 31.772320073563606, 59.53546739462763, -29.13195070484653, 0.01600000075995922, 1.0240000486373901, -0.03200000151991844, 0.0, 0.0, 0.0, 0.0, 0.0, 1.715100513202002E9, 0.0, 2024-05-07 11:48:33.202
11.0, 12.351019603665918, 23.88861096696928, 54.73717575147748, 30.665309686679393, 0.01600000075995922, 1.0240000486373901, -0.03200000151991844, 0.0, 0.0, 0.0, 0.0, 0.0, 1.7151005132312467E9, 0.0, 2024-05-07 11:48:33.231
11.0, 62.97804530384019, -81.96551737887785, 3.306071560829878, 32.01915347063914, 0.01600000075995922, 1.0240000486373901, -0.03200000151991844, 0.0, 0.0, 0.0, 0.0, 0.0, 1.7151005132312632E9, 0.0, 2024-05-07 11:48:33.231
12.0, -12.186464005615562, -21.225802198518068, 42.93779139127582, -14.961469772737473, 0.0, 1.0240000486373901, -0.03200000151991844, 0.0, 0.0, 0.0, 0.0, 0.0, 1.7151005132314956E9, 0.0, 2024-05-07 11:48:33.231
12.0, -31.435729077551514, 62.035590515006334, 76.28647929616272, 5.731396682094783, 0.0, 1.0240000486373901, -0.03200000151991844, 0.0, 0.0, 0.0, 0.0, 0.0, 1.715100513231502E9, 0.0, 2024-05-07 11:48:33.231
13.0, 64.38798758713529, -45.94280100567266, 0.2131742974743247, 59.73929194221273, 0.0, 1.0240000486373901, -0.03200000151991844, 0.0, 0.0, 0.0, 0.0, 0.0, 1.7151005132321544E9, 0.0, 2024-05-07 11:48:33.232
13.0, 19.49796841898933, -41.17068866221234, -4.151288950815797, 14.512681778054684, 0.0, 1.0240000486373901, -0.03200000151991844, 0.0, 0.0, 0.0, 0.0, 0.0, 1.7151005132321627E9, 0.0, 2024-05-07 11:48:33.232
14.0, -54.21171980770305, 59.72807224234566, 79.62247005663812, -28.638283910695463, 0.0, 1.0240000486373901, -0.03200000151991844, 0.0, 0.0, 0.0, 0.0, 0.0, 1.7151005132331023E9, 0.0, 2024-05-07 11:48:33.233
14.0, 48.93846087018028, -20.997668301220983, 27.630380872637033, 51.76956513663754, 0.0, 1.0240000486373901, -0.03200000151991844, 0.0, 0.0, 0.0, 0.0, 0.0, 1.715100513233117E9, 0.0, 2024-05-07 11:48:33.233
15.0, 40.4451480708085, -62.84714880539104, 7.936067705973983, 32.81575216120109, 0.0, 1.0240000486373901, -0.03200000151991844, 0.0, 0.0, 0.0, 0.0, 0.0, 1.7151005132610967E9, 0.0, 2024-05-07 11:48:33.261
15.0, -39.19228158565238, 43.414628635626286, 70.14930346887559, -19.673743716906756, 0.0, 1.0240000486373901, -0.03200000151991844, 0.0, 0.0, 0.0, 0.0, 0.0, 1.71510051326111E9, 0.0, 2024-05-07 11:48:33.261
16.0, 13.88811848545447, 10.791481322143227, 65.55296642333269, 26.37564443750307, 0.0, 1.0240000486373901, -0.03200000151991844, 0.0, 0.0, 0.0, 0.0, 0.0, 1.715100513261854E9, 0.0, 2024-05-07 11:48:33.261
16.0, 57.79828386520967, -79.05213531339541, -10.288464778102934, 34.54732584068552, 0.0, 1.0240000486373901, -0.03200000151991844, 0.0, 0.0, 0.0, 0.0, 0.0, 1.7151005132618644E9, 0.0, 2024-05-07 11:48:33.261
17.0, -12.223863005172461, -19.595205817837268, 31.33288182877004, -10.365132727194577, 0.0, 1.0240000486373901, -0.03200000151991844, 0.0, 0.0, 0.0, 0.0, 0.0, 1.7151005132917368E9, 0.0, 2024-05-07 11:48:33.291
17.0, -34.34163134312257, 50.4119814527221, 68.50000758841634, -4.078360901679844, 0.0, 1.0240000486373901, -0.03200000151991844, 0.0, 0.0, 0.0, 0.0, 0.0, 1.715100513291766E9, 0.0, 2024-05-07 11:48:33.291
18.0, 63.90554049285129, -70.20353201823309, 2.894682565703988, 49.551804462913424, 0.0, 1.0240000486373901, -0.03200000151991844, 0.0, 0.0, 0.0, 0.0, 0.0, 1.7151005132919123E9, 0.0, 2024-05-07 11:48:33.291
18.0, 16.992235448677093, -47.62949588568881, 14.996998822316527, 12.238822604995221, 0.0, 1.0240000486373901, -0.03200000151991844, 0.0, 0.0, 0.0, 0.0, 0.0, 1.7151005132919295E9, 0.0, 2024-05-07 11:48:33.291
19.0, -58.86415535258129, 58.97635235125199, 84.73865319602191, -35.93108882429078, 0.0, 1.0240000486373901, -0.03200000151991844, 0.0, 0.0, 0.0, 0.0, 0.0, 1.7151005132922366E9, 0.0, 2024-05-07 11:48:33.292
19.0, 51.04776444518939, -24.976921854075044, 42.889172691851854, 53.583416615147144, 0.0, 1.0240000486373901, -0.03200000151991844, 0.0, 0.0, 0.0, 0.0, 0.0, 1.7151005132922616E9, 0.0, 2024-05-07 11:48:33.292
20.0, 38.15632929792628, -71.18712570657954, 11.6722277617082, 11.700277011375874, 0.0, 1.0240000486373901, -0.04800000227987766, 0.0, 0.0, 0.0, 0.0, 0.0, 1.7151005132930498E9, 0.0, 2024-05-07 11:48:33.293
20.0, -42.35249704821035, 21.397837596479803, 66.14761051628739, -26.80199303245172, 0.0, 1.0240000486373901, -0.04800000227987766, 0.0, 0.0, 0.0, 0.0, 0.0, 1.715100513293062E9, 0.0, 2024-05-07 11:48:33.293
21.0, 15.47757596662268, 13.128918794449419, 54.37066555581987, 32.32582526700571, 0.0, 1.0400000493973494, -0.04800000227987766, 0.0, 0.0, 0.0, 0.0, 0.0, 1.7151005133211648E9, 0.0, 2024-05-07 11:48:33.321
21.0, 56.81469017686322, -89.60239308839664, -1.9597075767815113, 39.69342817971483, 0.0, 1.0400000493973494, -0.04800000227987766, 0.0, 0.0, 0.0, 0.0, 0.0, 1.7151005133211842E9, 0.0, 2024-05-07 11:48:33.321
22.0, -4.785201993305236, -18.806086927186698, 36.21719117090106, -19.97667561331764, 0.01600000075995922, 1.0400000493973494, -0.04800000227987766, 0.0, 0.0, 0.0, 0.0, 0.0, 1.7151005133220196E9, 0.0, 2024-05-07 11:48:33.322
22.0, -29.393743701744825, 53.134628620464355, 77.23641388490796, -5.196590988431126, 0.01600000075995922, 1.0400000493973494, -0.04800000227987766, 0.0, 0.0, 0.0, 0.0, 0.0, 1.7151005133220482E9, 0.0, 2024-05-07 11:48:33.322
23.0, 66.0111041679047, -56.347202682401985, 6.1783147267997265, 58.363008758518845, 0.01600000075995922, 1.0400000493973494, -0.04800000227987766, 0.0, 0.0, 0.0, 0.0, 0.0, 1.715100513351046E9, 0.0, 2024-05-07 11:48:33.351
23.0, 20.223509010393173, -54.8587225000374, 32.49973061494529, 4.732843393925577, 0.01600000075995922, 1.0400000493973494, -0.04800000227987766, 0.0, 0.0, 0.0, 0.0, 0.0, 1.7151005133510578E9, 0.0, 2024-05-07 11:48:33.351
24.0, -51.900461635086685, 70.25215071765706, 85.61004988569766, -16.27417465718463, 0.01600000075995922, 1.0400000493973494, -0.04800000227987766, 0.0, 0.0, 0.0, 0.0, 0.0, 1.7151005133515549E9, 0.0, 2024-05-07 11:48:33.351
24.0, 53.920007611159235, -19.85699881473556, 23.920400116592646, 62.1590072135441, 0.01600000075995922, 1.0400000493973494, -0.04800000227987766, 0.0, 0.0, 0.0, 0.0, 0.0, 1.7151005133515687E9, 0.0, 2024-05-07 11:48:33.351
25.0, 39.457814482506365, -74.93450546218082, -14.002185434103012, 9.691950735170394, 0.01600000075995922, 1.0400000493973494, -0.04800000227987766, 0.0, 0.0, 0.0, 0.0, 0.0, 1.7151005133523211E9, 0.0, 2024-05-07 11:48:33.352
25.0, -41.69053475605324, 35.1457098335959, 62.08607916440815, -22.33655248535797, 0.01600000075995922, 1.0400000493973494, -0.04800000227987766, 0.0, 0.0, 0.0, 0.0, 0.0, 1.7151005133523355E9, 0.0, 2024-05-07 11:48:33.352
26.0, 16.73792225169018, 13.031681395601481, 62.80040005594492, 37.860877201426774, 0.01600000075995922, 1.0400000493973494, -0.04800000227987766, 0.0, 0.0, 0.0, 0.0, 0.0, 1.715100513353124E9, 0.0, 2024-05-07 11:48:33.353
26.0, 60.1207617376931, -80.7986685927026, -9.929434382356703, 45.64734890917316, 0.01600000075995922, 1.0400000493973494, -0.04800000227987766, 0.0, 0.0, 0.0, 0.0, 0.0, 1.715100513353138E9, 0.0, 2024-05-07 11:48:33.353
27.0, -1.2285571354441345, -2.4253251212649047, 22.675013431347907, 7.231096564326435, 0.01600000075995922, 1.0400000493973494, -0.04800000227987766, 0.0, 0.0, 0.0, 0.0, 0.0, 1.7151005133814647E9, 0.0, 2024-05-07 11:48:33.381
27.0, -29.91732969554141, 63.1239014021121, 78.03301257546991, -7.160038465168327, 0.01600000075995922, 1.0400000493973494, -0.04800000227987766, 0.0, 0.0, 0.0, 0.0, 0.0, 1.7151005133814895E9, 0.0, 2024-05-07 11:48:33.381
28.0, 68.3822007398121, -49.63782216189429, 3.2387533616274595, 49.44334736419842, 0.01600000075995922, 1.0400000493973494, -0.04800000227987766, 0.0, 0.0, 0.0, 0.0, 0.0, 1.715100513382121E9, 0.0, 2024-05-07 11:48:33.382
28.0, 24.7712273565121, -35.437422030139714, 11.975159658119082, 2.462724120821804, 0.01600000075995922, 1.0400000493973494, -0.04800000227987766, 0.0, 0.0, 0.0, 0.0, 0.0, 1.7151005133821347E9, 0.0, 2024-05-07 11:48:33.382
29.0, -57.540230768267065, 61.220292324665934, 80.81175824254751, -25.766040744725615, 0.01600000075995922, 1.0400000493973494, -0.04800000227987766, 0.0, 0.0, 0.0, 0.0, 0.0, 1.715100513411096E9, 0.0, 2024-05-07 11:48:33.411
29.0, 52.17347433185205, -15.735629063565284, 39.86359362769872, 51.03280484536663, 0.01600000075995922, 1.0400000493973494, -0.04800000227987766, 0.0, 0.0, 0.0, 0.0, 0.0, 1.715100513411111E9, 0.0, 2024-05-07 11:48:33.411
30.0, 32.8868102603592, -59.86644854070619, 14.585609827190638, 24.33365906169638, 0.01600000075995922, 1.0400000493973494, -0.03200000151991844, 0.0, 0.0, 0.0, 0.0, 0.0, 1.7151005134116263E9, 0.0, 2024-05-07 11:48:33.411
30.0, -42.9284416413866, 32.87185066053644, 75.80029230192304, -23.1780299753882, 0.01600000075995922, 1.0400000493973494, -0.03200000151991844, 0.0, 0.0, 0.0, 0.0, 0.0, 1.715100513411638E9, 0.0, 2024-05-07 11:48:33.411
31.0, 16.595806053373963, 25.14521735208109, 56.79786062706262, 32.41932276589796, 0.01600000075995922, 1.0400000493973494, -0.03200000151991844, 0.0, 0.0, 0.0, 0.0, 0.0, 1.715100513412488E9, 0.0, 2024-05-07 11:48:33.412
31.0, 60.90614072838798, -71.30306260520592, 0.8639168897643685, 38.54901879327372, 0.01600000075995922, 1.0400000493973494, -0.03200000151991844, 0.0, 0.0, 0.0, 0.0, 0.0, 1.7151005134125051E9, 0.0, 2024-05-07 11:48:33.412
32.0, -12.362239303532988, -14.867972273845226, 43.3529202863574, 2.3617468220181763, 0.01600000075995922, 1.0400000493973494, -0.03200000151991844, 0.0, 0.0, 0.0, 0.0, 0.0, 1.715100513413237E9, 0.0, 2024-05-07 11:48:33.413
32.0, -32.90176986018196, 64.99385137995705, 65.49686792399734, -9.015028843190521, 0.01600000075995922, 1.0400000493973494, -0.03200000151991844, 0.0, 0.0, 0.0, 0.0, 0.0, 1.7151005134132538E9, 0.0, 2024-05-07 11:48:33.413
33.0, 66.01858396781608, -62.49559820955619, 1.567018081434071, 50.62515575019643, 0.01600000075995922, 1.0400000493973494, -0.03200000151991844, 0.0, 0.0, 0.0, 0.0, 0.0, 1.7151005134412737E9, 0.0, 2024-05-07 11:48:33.441
33.0, 23.48844167171046, -56.399561281781644, 11.803124260157347, 6.894505568314344, 0.01600000075995922, 1.0400000493973494, -0.03200000151991844, 0.0, 0.0, 0.0, 0.0, 0.0, 1.7151005134412973E9, 0.0, 2024-05-07 11:48:33.441
34.0, -49.27131196623668, 62.06924961460754, 81.23062703758478, -23.454782572109252, 0.01600000075995922, 1.0400000493973494, -0.03200000151991844, 0.0, 0.0, 0.0, 0.0, 0.0, 1.7151005134420536E9, 0.0, 2024-05-07 11:48:33.442
34.0, 51.907941434998065, -13.790881086606532, 31.00377063266933, 48.16430157935247, 0.01600000075995922, 1.0400000493973494, -0.03200000151991844, 0.0, 0.0, 0.0, 0.0, 0.0, 1.7151005134420652E9, 0.0, 2024-05-07 11:48:33.442
35.0, 44.618876421358436, -49.21521346690133, 0.5572450933977962, 13.846979585941881, 0.01600000075995922, 1.0400000493973494, -0.03200000151991844, 0.0, 0.0, 0.0, 0.0, 0.0, 1.7151005135012882E9, 0.0, 2024-05-07 11:48:33.501
35.0, -41.451181158889085, 30.82238548481837, 61.753228068351746, -21.98500188952312, 0.01600000075995922, 1.0400000493973494, -0.03200000151991844, 0.0, 0.0, 0.0, 0.0, 0.0, 1.7151005135013063E9, 0.0, 2024-05-07 11:48:33.501
36.0, 15.46261636679992, 30.534413188230246, 56.61086562927812, 27.20964212762192, 0.01600000075995922, 1.0400000493973494, -0.03200000151991844, 0.0, 0.0, 0.0, 0.0, 0.0, 1.7151005135017788E9, 0.0, 2024-05-07 11:48:33.501
36.0, 59.155867549125105, -69.1600999305956, -11.750765660777688, 37.71502110315487, 0.01600000075995922, 1.0400000493973494, -0.03200000151991844, 0.0, 0.0, 0.0, 0.0, 0.0, 1.7151005135017912E9, 0.0, 2024-05-07 11:48:33.501
37.0, 1.7596229291521013, -8.940230844076723, 24.470165410079062, 2.4253251212649047, 0.01600000075995922, 1.0400000493973494, -0.03200000151991844, 0.0, 0.0, 0.0, 0.0, 0.0, 1.7151005135022726E9, 0.0, 2024-05-07 11:48:33.502
37.0, -32.77087336173281, 69.10774133121595, 84.06173130404204, 3.868926504161209, 0.01600000075995922, 1.0400000493973494, -0.03200000151991844, 0.0, 0.0, 0.0, 0.0, 0.0, 1.7151005135022843E9, 0.0, 2024-05-07 11:48:33.502
38.0, 65.8278490700759, -54.724086101632565, 16.238645607605577, 50.97296644607559, 0.01600000075995922, 1.0400000493973494, -0.03200000151991844, 0.0, 0.0, 0.0, 0.0, 0.0, 1.715100513502889E9, 0.0, 2024-05-07 11:48:33.502
38.0, 14.953989972826093, -57.70104646636173, 12.85029624775052, 19.729842216242105, 0.01600000075995922, 1.0400000493973494, -0.03200000151991844, 0.0, 0.0, 0.0, 0.0, 0.0, 1.7151005135030067E9, 0.0, 2024-05-07 11:48:33.503
39.0, -60.12450163764879, 68.74871093546972, 74.9962138114497, -25.418230048846453, 0.01600000075995922, 1.0400000493973494, -0.03200000151991844, 0.0, 0.0, 0.0, 0.0, 0.0, 1.7151005135036006E9, 0.0, 2024-05-07 11:48:33.503
39.0, 52.46144662844017, -13.570226989220828, 40.832227716222405, 55.37108879396692, 0.01600000075995922, 1.0400000493973494, -0.03200000151991844, 0.0, 0.0, 0.0, 0.0, 0.0, 1.715100513503611E9, 0.0, 2024-05-07 11:48:33.503
40.0, 41.19312806194648, -58.83423615293577, -2.4458945710211992, 19.408210820052773, 0.01600000075995922, 1.0400000493973494, -0.03200000151991844, 0.0, 0.0, 0.0, 0.0, 0.0, 1.7151005135045109E9, 0.0, 2024-05-07 11:48:33.504
40.0, -43.418368535581976, 22.998514777515084, 59.48310879524797, -26.528980335686356, 0.01600000075995922, 1.0400000493973494, -0.03200000151991844, 0.0, 0.0, 0.0, 0.0, 0.0, 1.715100513504521E9, 0.0, 2024-05-07 11:48:33.504
42.0, -114.69712179107592, 86.83112722123042, 111.6434934772551, -68.63651393679902, 0.01600000075995922, 1.0400000493973494, -0.03200000151991844, 0.0, 0.0, 0.0, 0.0, 0.0, 1.7151005135311255E9, 0.0, 2024-05-07 11:48:33.531
42.0, -137.09538262570277, 165.85521328495815, 142.80060000810772, -73.01219688495621, 0.01600000075995922, 1.0400000493973494, -0.03200000151991844, 0.0, 0.0, 0.0, 0.0, 0.0, 1.7151005135311425E9, 0.0, 2024-05-07 11:48:33.531
43.0, -36.200361621100456, 41.092150763142854, 79.90296255331486, -5.499522884842008, 0.01600000075995922, 1.0400000493973494, -0.03200000151991844, 0.0, 0.0, 0.0, 0.0, 0.0, 1.7151005135320747E9, 0.0, 2024-05-07 11:48:33.532
43.0, -75.13646005978808, 39.58497108099982, 79.14376286230981, -54.376275405753404, 0.01600000075995922, 1.0400000493973494, -0.03200000151991844, 0.0, 0.0, 0.0, 0.0, 0.0, 1.7151005135320933E9, 0.0, 2024-05-07 11:48:33.532
44.0, -161.165378740523, 155.98935720184818, 142.60238531045616, -88.910511596594, 0.01600000075995922, 1.0400000493973494, -0.03200000151991844, 0.0, 0.0, 0.0, 0.0, 0.0, 1.7151005135614712E9, 0.0, 2024-05-07 11:48:33.561
44.0, -53.72179291350767, 81.25119648734108, 108.18408601824194, -13.985355884302408, 0.01600000075995922, 1.0400000493973494, -0.03200000151991844, 0.0, 0.0, 0.0, 0.0, 0.0, 1.7151005135615113E9, 0.0, 2024-05-07 11:48:33.561
45.0, -67.62300104880705, 27.075005729217082, 64.33749893773347, -58.96139275142923, 0.01600000075995922, 1.0400000493973494, -0.03200000151991844, 0.0, 0.0, 0.0, 0.0, 0.0, 1.7151005135617683E9, 0.0, 2024-05-07 11:48:33.561
45.0, -143.33353575179353, 123.69906098442152, 130.16721795778722, -88.25228920439258, 0.01600000075995922, 1.0400000493973494, -0.03200000151991844, 0.0, 0.0, 0.0, 0.0, 0.0, 1.71510051356178E9, 0.0, 2024-05-07 11:48:33.561
46.0, -93.74246233934537, 134.87014215206727, 113.53962275478989, -39.11748358653858, 0.01600000075995922, 1.0400000493973494, -0.03200000151991844, 0.0, 0.0, 0.0, 0.0, 0.0, 1.7151005135623157E9, 0.0, 2024-05-07 11:48:33.562
46.0, -44.51041932264343, 34.02747974684462, 64.67408993374556, -31.024340082425624, 0.01600000075995922, 1.0400000493973494, -0.03200000151991844, 0.0, 0.0, 0.0, 0.0, 0.0, 1.7151005135623288E9, 0.0, 2024-05-07 11:48:33.562
47.0, -114.49142729351297, 74.73629076452926, 123.22596364002675, -67.17795295407996, 0.01600000075995922, 1.0400000493973494, -0.03200000151991844, 0.0, 0.0, 0.0, 0.0, 0.0, 1.7151005135631883E9, 0.0, 2024-05-07 11:48:33.563
47.0, -135.69666004227474, 155.36479390924796, 144.65185048617423, -78.34903412172571, 0.01600000075995922, 1.0400000493973494, -0.03200000151991844, 0.0, 0.0, 0.0, 0.0, 0.0, 1.7151005135631998E9, 0.0, 2024-05-07 11:48:33.563
48.0, -37.60282410448417, 35.796452425885946, 77.90959587693214, -5.83237398089841, 0.01600000075995922, 1.0400000493973494, -0.03200000151991844, 0.0, 0.0, 0.0, 0.0, 0.0, 1.715100513591513E9, 0.0, 2024-05-07 11:48:33.591
48.0, -84.82280094502494, 43.94569442933425, 82.33015762455761, -51.548911039251834, 0.01600000075995922, 1.0400000493973494, -0.03200000151991844, 0.0, 0.0, 0.0, 0.0, 0.0, 1.715100513591529E9, 0.0, 2024-05-07 11:48:33.591
49.0, -159.3515272620134, 156.73733719298616, 136.16601748671383, -95.3954981197603, 0.01600000075995922, 1.0400000493973494, -0.03200000151991844, 0.0, 0.0, 0.0, 0.0, 0.0, 1.715100513591852E9, 0.0, 2024-05-07 11:48:33.591
49.0, -56.40704108169302, 84.41515184985474, 92.01649850979447, -8.6522585474886, 0.01600000075995922, 1.0400000493973494, -0.03200000151991844, 0.0, 0.0, 0.0, 0.0, 0.0, 1.7151005135918615E9, 0.0, 2024-05-07 11:48:33.591
50.0, -60.786463929805905, 47.939907582011074, 60.36946508474648, -40.92011536518112, 0.01600000075995922, 1.0400000493973494, -0.04800000227987766, 0.0, 0.0, 0.0, 0.0, 0.0, 1.7151005136210968E9, 0.0, 2024-05-07 11:48:33.621
50.0, -141.13821447780356, 132.75709867710248, 117.99010370206088, -88.33456700341776, 0.01600000075995922, 1.0400000493973494, -0.04800000227987766, 0.0, 0.0, 0.0, 0.0, 0.0, 1.715100513621109E9, 0.0, 2024-05-07 11:48:33.621
51.0, -87.46317031374201, 112.2587070199661, 129.1387454699725, -37.17647550953552, 0.01600000075995922, 1.0400000493973494, -0.04800000227987766, 0.0, 0.0, 0.0, 0.0, 0.0, 1.715100513621765E9, 0.0, 2024-05-07 11:48:33.621
51.0, -36.34621771937236, 33.20844165654853, 68.06243929360062, -33.369257354643196, 0.01600000075995922, 1.0400000493973494, -0.04800000227987766, 0.0, 0.0, 0.0, 0.0, 0.0, 1.715100513621778E9, 0.0, 2024-05-07 11:48:33.621
52.0, -108.73198136175051, 81.61770668299869, 108.69645231217146, -78.95489791454747, 0.01600000075995922, 1.0400000493973494, -0.04800000227987766, 0.0, 0.0, 0.0, 0.0, 0.0, 1.7151005136223192E9, 0.0, 2024-05-07 11:48:33.622
52.0, -141.55708327284083, 159.18697166396305, 126.31512100342661, -81.54664858384058, 0.01600000075995922, 1.0400000493973494, -0.04800000227987766, 0.0, 0.0, 0.0, 0.0, 0.0, 1.7151005136223464E9, 0.0, 2024-05-07 11:48:33.622
53.0, -36.90720271272585, 44.645055721048266, 66.07281251717359, -10.439930726308376, 0.01600000075995922, 1.0400000493973494, -0.04800000227987766, 0.0, 0.0, 0.0, 0.0, 0.0, 1.7151005136232817E9, 0.0, 2024-05-07 11:48:33.623
53.0, -79.56450160732493, 44.274805625434965, 80.2208540495485, -66.35891486378387, 0.01600000075995922, 1.0400000493973494, -0.04800000227987766, 0.0, 0.0, 0.0, 0.0, 0.0, 1.7151005136233013E9, 0.0, 2024-05-07 11:48:33.623
54.0, -150.8357750629075, 165.29796819156036, 145.7775603728369, -93.7686416390352, 0.01600000075995922, 1.0400000493973494, -0.04800000227987766, 0.0, 0.0, 0.0, 0.0, 0.0, 1.715100513651236E9, 0.0, 2024-05-07 11:48:33.651
54.0, -57.02412457438186, 83.39789906190708, 90.83469012379646, -12.339799903798848, 0.01600000075995922, 1.0400000493973494, -0.04800000227987766, 0.0, 0.0, 0.0, 0.0, 0.0, 1.7151005136512523E9, 0.0, 2024-05-07 11:48:33.651
55.0, -66.51225076196715, 35.65059632761404, 68.8104192847386, -48.95716036995873, 0.01600000075995922, 1.0400000493973494, -0.04800000227987766, 0.0, 0.0, 0.0, 0.0, 0.0, 1.715100513652411E9, 0.0, 2024-05-07 11:48:33.652
55.0, -145.4951979261823, 125.5203922628425, 121.39715256169438, -92.01836845977232, 0.01600000075995922, 1.0400000493973494, -0.04800000227987766, 0.0, 0.0, 0.0, 0.0, 0.0, 1.7151005136524272E9, 0.0, 2024-05-07 11:48:33.652
56.0, -93.07302024727687, 132.44294708082452, 124.41525182593614, -27.97632161853835, 0.01600000075995922, 1.0400000493973494, -0.04800000227987766, 0.0, 0.0, 0.0, 0.0, 0.0, 1.7151005136531055E9, 0.0, 2024-05-07 11:48:33.653
56.0, -46.38784910039976, 21.689549793023616, 64.07944584079087, -29.14691030466929, 0.01600000075995922, 1.0400000493973494, -0.04800000227987766, 0.0, 0.0, 0.0, 0.0, 0.0, 1.715100513653118E9, 0.0, 2024-05-07 11:48:33.653
57.0, -107.87928417185321, 90.5411079772748, 114.59427454229444, -74.61661396594718, 0.01600000075995922, 1.0400000493973494, -0.04800000227987766, 0.0, 0.0, 0.0, 0.0, 0.0, 1.7151005136812253E9, 0.0, 2024-05-07 11:48:33.681
57.0, -134.8215234526433, 162.86703322036192, 134.64013830479234, -61.51574442116544, 0.01600000075995922, 1.0400000493973494, -0.04800000227987766, 0.0, 0.0, 0.0, 0.0, 0.0, 1.7151005136812391E9, 0.0, 2024-05-07 11:48:33.681
58.0, -39.869203477632254, 52.95885332254693, 65.9194766189903, -18.028187736403197, 0.01600000075995922, 1.0400000493973494, -0.04800000227987766, 0.0, 0.0, 0.0, 0.0, 0.0, 1.7151005136821628E9, 0.0, 2024-05-07 11:48:33.682
58.0, -79.85247390391305, 55.72637928975746, 71.08801835775375, -40.70694106770679, 0.01600000075995922, 1.0400000493973494, -0.04800000227987766, 0.0, 0.0, 0.0, 0.0, 0.0, 1.7151005136821797E9, 0.0, 2024-05-07 11:48:33.682
59.0, -155.6527662058361, 161.88343953201547, 139.56184664648026, -93.96685633668676, 0.01600000075995922, 1.0400000493973494, -0.04800000227987766, 0.0, 0.0, 0.0, 0.0, 0.0, 1.7151005137116838E9, 0.0, 2024-05-07 11:48:33.711
59.0, -53.923747511114925, 77.84414762770757, 95.99201216269284, -17.5457406421192, 0.01600000075995922, 1.0400000493973494, -0.04800000227987766, 0.0, 0.0, 0.0, 0.0, 0.0, 1.7151005137117004E9, 0.0, 2024-05-07 11:48:33.711
60.0, -62.360961811151356, 26.914190031122416, 45.88857245631516, -56.16394758457318, 0.01600000075995922, 1.0400000493973494, -0.04800000227987766, 0.0, 0.0, 0.0, 0.0, 0.0, 1.7151005137118015E9, 0.0, 2024-05-07 11:48:33.711
60.0, -144.02167734364048, 130.2326662070118, 107.40992672741413, -84.12717955326661, 0.01600000075995922, 1.0400000493973494, -0.04800000227987766, 0.0, 0.0, 0.0, 0.0, 0.0, 1.7151005137118142E9, 0.0, 2024-05-07 11:48:33.711
61.0, -95.86672551417723, 123.58686398575082, 110.59632148966193, -37.21387450909242, 0.01600000075995922, 1.0240000486373901, -0.04800000227987766, 0.0, 0.0, 0.0, 0.0, 0.0, 1.7151005137122731E9, 0.0, 2024-05-07 11:48:33.712
61.0, -42.40111574763432, 23.065832976717502, 61.12118497584015, -35.826371625531465, 0.01600000075995922, 1.0240000486373901, -0.04800000227987766, 0.0, 0.0, 0.0, 0.0, 0.0, 1.7151005137122817E9, 0.0, 2024-05-07 11:48:33.712
62.0, -105.92705639498308, 82.08519417745993, 109.41451310366392, -70.29702951712534, 0.01600000075995922, 1.0240000486373901, -0.04800000227987766, 0.0, 0.0, 0.0, 0.0, 0.0, 1.71510051371338E9, 0.0, 2024-05-07 11:48:33.713
62.0, -135.4535665451549, 163.90298550808802, 143.81785279605538, -69.14888023072854, 0.01600000075995922, 1.0240000486373901, -0.04800000227987766, 0.0, 0.0, 0.0, 0.0, 0.0, 1.7151005137133977E9, 0.0, 2024-05-07 11:48:33.713
63.0, -39.861723677720875, 42.13932275073603, 71.17403605673462, -12.638991900254041, 0.01600000075995922, 1.0240000486373901, -0.04800000227987766, 0.0, 0.0, 0.0, 0.0, 0.0, 1.7151005137411785E9, 0.0, 2024-05-07 11:48:33.741
63.0, -82.7247170698829, 34.199515144806355, 73.72090792655945, -66.13826076639816, 0.01600000075995922, 1.0240000486373901, -0.04800000227987766, 0.0, 0.0, 0.0, 0.0, 0.0, 1.7151005137411995E9, 0.0, 2024-05-07 11:48:33.741
64.0, -156.15017289994285, 154.1979451230727, 142.01522101741284, -91.52844156557694, 0.01600000075995922, 1.0240000486373901, -0.04800000227987766, 0.0, 0.0, 0.0, 0.0, 0.0, 1.71510051374222E9, 0.0, 2024-05-07 11:48:33.742
64.0, -51.63866863818839, 77.88528652722016, 93.43766049295664, -14.748295475263149, 0.01600000075995922, 1.0240000486373901, -0.04800000227987766, 0.0, 0.0, 0.0, 0.0, 0.0, 1.7151005137422352E9, 0.0, 2024-05-07 11:48:33.742
65.0, -66.02232386777177, 36.608010716270655, 67.8829240957275, -47.2255866904743, 0.01600000075995922, 1.0240000486373901, -0.04800000227987766, 0.0, 0.0, 0.0, 0.0, 0.0, 1.7151005138012261E9, 0.0, 2024-05-07 11:48:33.801
65.0, -139.2682644999586, 130.10176970856264, 136.62602518126369, -87.50804911321029, 0.01600000075995922, 1.0240000486373901, -0.04800000227987766, 0.0, 0.0, 0.0, 0.0, 0.0, 1.7151005138012424E9, 0.0, 2024-05-07 11:48:33.801
66.0, -89.45653699012473, 127.27440534206107, 113.62190055381507, -32.12013076944277, 0.01600000075995922, 1.0240000486373901, -0.04800000227987766, 0.0, 0.0, 0.0, 0.0, 0.0, 1.7151005138017814E9, 0.0, 2024-05-07 11:48:33.801
66.0, -43.444547835271806, 40.699461267795414, 59.782300791703165, -27.422816425096244, 0.01600000075995922, 1.0240000486373901, -0.04800000227987766, 0.0, 0.0, 0.0, 0.0, 0.0, 1.715100513801797E9, 0.0, 2024-05-07 11:48:33.801
67.0, -110.67672933870926, 75.09906106023118, 93.55733729153872, -67.1255943547003, 0.01600000075995922, 1.0240000486373901, -0.04800000227987766, 0.0, 0.0, 0.0, 0.0, 0.0, 1.7151005138022947E9, 0.0, 2024-05-07 11:48:33.802
67.0, -136.53439763234928, 172.08214671118185, 138.4323968598619, -73.9770910735242, 0.01600000075995922, 1.0240000486373901, -0.04800000227987766, 0.0, 0.0, 0.0, 0.0, 0.0, 1.7151005138023093E9, 0.0, 2024-05-07 11:48:33.802
68.0, -37.019399711396545, 42.86860324209556, 63.92610994260758, -12.971842996310443, 0.01600000075995922, 1.0240000486373901, -0.04800000227987766, 0.0, 0.0, 0.0, 0.0, 0.0, 1.715100513803025E9, 0.0, 2024-05-07 11:48:33.803
68.0, -85.58948043594137, 49.99311265768483, 70.7738667614758, -50.54287795117125, 0.01600000075995922, 1.0240000486373901, -0.04800000227987766, 0.0, 0.0, 0.0, 0.0, 0.0, 1.715100513803038E9, 0.0, 2024-05-07 11:48:33.803
69.0, -162.52670232439414, 159.38518636161461, 148.2907731430605, -88.08399370638654, 0.01600000075995922, 1.0240000486373901, -0.04800000227987766, 0.0, 0.0, 0.0, 0.0, 0.0, 1.715100513803782E9, 0.0, 2024-05-07 11:48:33.803
69.0, -55.60296259121969, 76.75209684064612, 89.77629843633622, -16.420030755456537, 0.01600000075995922, 1.0240000486373901, -0.04800000227987766, 0.0, 0.0, 0.0, 0.0, 0.0, 1.7151005138038008E9, 0.0, 2024-05-07 11:48:33.803
70.0, -69.73978442372754, 31.117837581317872, 69.30782597884536, -41.6680953563191, 0.01600000075995922, 1.0240000486373901, -0.03200000151991844, 0.0, 0.0, 0.0, 0.0, 0.0, 1.715100513804504E9, 0.0, 2024-05-07 11:48:33.804
70.0, -145.48771812627092, 122.95856079319492, 132.75522872712463, -95.07012682361528, 0.01600000075995922, 1.0240000486373901, -0.03200000151991844, 0.0, 0.0, 0.0, 0.0, 0.0, 1.7151005138045175E9, 0.0, 2024-05-07 11:48:33.804
71.0, -94.81581362662837, 116.38381667109206, 125.34274701494724, -38.72105419123545, 0.01600000075995922, 1.0400000493973494, -0.03200000151991844, 0.0, 0.0, 0.0, 0.0, 0.0, 1.715100513805503E9, 0.0, 2024-05-07 11:48:33.805
71.0, -38.687395091634244, 20.249688310083002, 52.30250088032335, -30.01456709438935, 0.01600000075995922, 1.0400000493973494, -0.03200000151991844, 0.0, 0.0, 0.0, 0.0, 0.0, 1.7151005138055308E9, 0.0, 2024-05-07 11:48:33.805
72.0, -108.91523645957932, 83.64473245898262, 88.29529805388302, -64.96393218031153, 0.01600000075995922, 1.0400000493973494, -0.03200000151991844, 0.0, 0.0, 0.0, 0.0, 0.0, 1.7151005138317642E9, 0.0, 2024-05-07 11:48:33.831
72.0, -137.68254691874608, 158.85786046786234, 137.55726027023047, -66.42623306298628, 0.01600000075995922, 1.0400000493973494, -0.03200000151991844, 0.0, 0.0, 0.0, 0.0, 0.0, 1.7151005138318045E9, 0.0, 2024-05-07 11:48:33.831
