%OpenBCI Raw EXG Data
%Number of channels = 4
%Sample Rate = 200 Hz
%Board = OpenBCI_GUI$BoardGanglionBLE
Sample Index, EXG Channel 0, EXG Channel 1, EXG Channel 2, EXG Channel 3, Accel Channel 0, Accel Channel 1, Accel Channel 2, Other, Other, Other, Other, Other, Timestamp, Other, Timestamp (Formatted)
0.0, -648.485562666785, -647.8965284237638, -65.3828009753488, -330.33040348626673, 0.0, 0.0, 0.0, 0.0, 0.0, 0.0, 0.0, 0.0, 1.7151028156548748E9, 0.0, 2024-05-07 12:26:55.654
1.0, -638.8740197806619, -639.608910121955, -56.380861782003194, -322.65238887723535, 0.0, 0.9280000440776348, 0.0, 0.0, 0.0, 0.0, 0.0, 0.0, 1.715102815668248E9, 0.0, 2024-05-07 12:26:55.668
1.0, -660.449502625037, -643.4011686770245, -67.4584454507567, -340.4655323661864, 0.0, 0.9280000440776348, 0.0, 0.0, 0.0, 0.0, 0.0, 0.0, 1.715102815668248E9, 0.0, 2024-05-07 12:26:55.668
2.0, -653.0706800124608, -649.6879405025393, -69.00302413245663, -339.167787081562, 0.09600000455975533, 0.9280000440776348, 0.0, 0.0, 0.0, 0.0, 0.0, 0.0, 1.7151028156849363E9, 0.0, 2024-05-07 12:26:55.684
2.0, -642.6887177354656, -644.0519112693146, -67.80999604659155, -336.7443319102749, 0.09600000455975533, 0.9280000440776348, 0.0, 0.0, 0.0, 0.0, 0.0, 0.0, 1.7151028156849363E9, 0.0, 2024-05-07 12:26:55.684
3.0, -648.9829693608917, -661.6892794603482, -79.6093804067932, -336.40026111435145, 0.09600000455975533, 0.9280000440776348, 0.0, 0.0, 0.0, 0.0, 0.0, 0.0, 1.7151028156856763E9, 0.0, 2024-05-07 12:26:55.685
3.0, -661.5452933120541, -654.093542650342, -85.85127343283966, -338.18045349325985, 0.09600000455975533, 0.9280000440776348, 0.0, 0.0, 0.0, 0.0, 0.0, 0.0, 1.7151028156856763E9, 0.0, 2024-05-07 12:26:55.685
4.0, -670.6743891038932, -661.390087463893, -91.62567896442488, -342.1634469460696, 0.09600000455975533, 0.9280000440776348, 0.0, 0.0, 0.0, 0.0, 0.0, 0.0, 1.7151028156982448E9, 0.0, 2024-05-07 12:26:55.698
4.0, -667.6525499396957, -663.5293102385476, -84.02994215441868, -350.7240779446438, 0.09600000455975533, 0.9280000440776348, 0.0, 0.0, 0.0, 0.0, 0.0, 0.0, 1.7151028156982448E9, 0.0, 2024-05-07 12:26:55.698
5.0, -676.1720420387574, -685.0299950838089, -103.23432842688635, -370.37725221179426, 0.09600000455975533, 0.9280000440776348, 0.0, 0.0, 0.0, 0.0, 0.0, 0.0, 1.715102815713739E9, 0.0, 2024-05-07 12:26:55.713
5.0, -663.5947584877722, -681.34993352741, -99.09425917593762, -358.0580217577517, 0.09600000455975533, 0.9280000440776348, 0.0, 0.0, 0.0, 0.0, 0.0, 0.0, 1.715102815713739E9, 0.0, 2024-05-07 12:26:55.713
6.0, -655.8681251793168, -670.1377134602517, -84.74052314599976, -363.2564826961607, 0.09600000455975533, 0.9280000440776348, 0.0, 0.0, 0.0, 0.0, 0.0, 0.0, 1.7151028157144344E9, 0.0, 2024-05-07 12:26:55.714
6.0, -672.9594679768197, -686.6194525649771, -100.6238782578148, -370.8821387058124, 0.09600000455975533, 0.9280000440776348, 0.0, 0.0, 0.0, 0.0, 0.0, 0.0, 1.7151028157144344E9, 0.0, 2024-05-07 12:26:55.714
7.0, -664.1482636812143, -671.364400645718, -81.04550198977813, -355.01000329386443, 0.09600000455975533, 0.9280000440776348, 0.0, 0.0, 0.0, 0.0, 0.0, 0.0, 1.7151028157280571E9, 0.0, 2024-05-07 12:26:55.728
7.0, -668.4566284301691, -660.2830770770088, -78.08350122487172, -350.22667125053704, 0.09600000455975533, 0.9280000440776348, 0.0, 0.0, 0.0, 0.0, 0.0, 0.0, 1.7151028157280571E9, 0.0, 2024-05-07 12:26:55.728
8.0, -662.6597834988497, -666.1322806077078, -78.41261242097244, -344.17551312223077, 0.09600000455975533, 0.9280000440776348, 0.0, 0.0, 0.0, 0.0, 0.0, 0.0, 1.7151028157436936E9, 0.0, 2024-05-07 12:26:55.743
8.0, -674.8107184548862, -661.5845622615889, -78.2779760225676, -352.9455785183236, 0.09600000455975533, 0.9280000440776348, 0.0, 0.0, 0.0, 0.0, 0.0, 0.0, 1.7151028157436936E9, 0.0, 2024-05-07 12:26:55.743
9.0, -673.112803875003, -657.3435157118365, -80.60045389505103, -351.26262353826314, 0.09600000455975533, 0.9280000440776348, 0.0, 0.0, 0.0, 0.0, 0.0, 0.0, 1.7151028157444608E9, 0.0, 2024-05-07 12:26:55.744
9.0, -668.2920728321187, -650.2451855959371, -68.78237003507093, -329.8666558917612, 0.09600000455975533, 0.9280000440776348, 0.0, 0.0, 0.0, 0.0, 0.0, 0.0, 1.7151028157444608E9, 0.0, 2024-05-07 12:26:55.744
10.0, -682.9150816588663, -660.7468246715143, -76.3893265449442, -344.5756824174896, 0.09600000455975533, 0.9280000440776348, 0.288000013679266, 0.0, 0.0, 0.0, 0.0, 0.0, 1.7151028157583137E9, 0.0, 2024-05-07 12:26:55.758
10.0, -670.5360128055327, -652.9865322634578, -70.03149662027135, -342.7917501386255, 0.09600000455975533, 0.9280000440776348, 0.288000013679266, 0.0, 0.0, 0.0, 0.0, 0.0, 1.7151028157583137E9, 0.0, 2024-05-07 12:26:55.758
11.0, -668.7221613270231, -649.1157358093187, -58.03015766246244, -334.9379602316767, 0.09600000455975533, 0.9920000471174717, 0.288000013679266, 0.0, 0.0, 0.0, 0.0, 0.0, 1.7151028157736485E9, 0.0, 2024-05-07 12:26:55.773
11.0, -673.4568746709265, -657.0331040155143, -64.28327038837597, -343.26297753304243, 0.09600000455975533, 0.9920000471174717, 0.288000013679266, 0.0, 0.0, 0.0, 0.0, 0.0, 1.7151028157736485E9, 0.0, 2024-05-07 12:26:55.773
12.0, -673.3222382725216, -651.729925878346, -58.59862245572731, -344.59064201731235, 0.0800000037997961, 0.9920000471174717, 0.288000013679266, 0.0, 0.0, 0.0, 0.0, 0.0, 1.7151028157887068E9, 0.0, 2024-05-07 12:26:55.788
12.0, -669.2906261202879, -637.6753818448633, -55.71889948984608, -336.33294291514903, 0.0800000037997961, 0.9920000471174717, 0.288000013679266, 0.0, 0.0, 0.0, 0.0, 0.0, 1.7151028157887068E9, 0.0, 2024-05-07 12:26:55.788
13.0, -675.1286099511199, -641.0861706044525, -40.00757977599278, -333.269964851439, 0.0800000037997961, 0.9920000471174717, 0.288000013679266, 0.0, 0.0, 0.0, 0.0, 0.0, 1.715102815789464E9, 0.0, 2024-05-07 12:26:55.789
13.0, -671.1082174987532, -652.5564437685534, -48.81130427168682, -330.7530121812597, 0.0800000037997961, 0.9920000471174717, 0.288000013679266, 0.0, 0.0, 0.0, 0.0, 0.0, 1.715102815789464E9, 0.0, 2024-05-07 12:26:55.789
14.0, -679.4631539997645, -642.5746507868171, -46.672081497032195, -338.5020848894492, 0.0800000037997961, 0.9920000471174717, 0.288000013679266, 0.0, 0.0, 0.0, 0.0, 0.0, 1.7151028158038228E9, 0.0, 2024-05-07 12:26:55.803
14.0, -677.189294826705, -634.2683329852298, -39.027725987602025, -319.641769412905, 0.0800000037997961, 0.9920000471174717, 0.288000013679266, 0.0, 0.0, 0.0, 0.0, 0.0, 1.7151028158038228E9, 0.0, 2024-05-07 12:26:55.803
15.0, -689.6207222794183, -651.8870016764849, -63.4193534986116, -340.07284287083894, 0.0800000037997961, 0.9920000471174717, 0.288000013679266, 0.0, 0.0, 0.0, 0.0, 0.0, 1.715102815804454E9, 0.0, 2024-05-07 12:26:55.804
15.0, -676.0261859404854, -647.9601067230105, -54.1930203079246, -316.45911455061287, 0.0800000037997961, 0.9920000471174717, 0.288000013679266, 0.0, 0.0, 0.0, 0.0, 0.0, 1.715102815804454E9, 0.0, 2024-05-07 12:26:55.804
16.0, -675.6970747443847, -633.6437696926296, -43.34357053646818, -309.46176173351705, 0.0800000037997961, 0.9920000471174717, 0.288000013679266, 0.0, 0.0, 0.0, 0.0, 0.0, 1.7151028158180313E9, 0.0, 2024-05-07 12:26:55.818
16.0, -685.1440620324574, -656.0420305272564, -63.76342429453507, -311.5523658087477, 0.0800000037997961, 0.9920000471174717, 0.288000013679266, 0.0, 0.0, 0.0, 0.0, 0.0, 1.7151028158180313E9, 0.0, 2024-05-07 12:26:55.818
17.0, -678.8311109072529, -639.1115034278482, -61.152974125463516, -307.20660206023604, 0.0800000037997961, 0.9920000471174717, 0.288000013679266, 0.0, 0.0, 0.0, 0.0, 0.0, 1.7151028158338008E9, 0.0, 2024-05-07 12:26:55.833
17.0, -663.5760589879937, -643.9546738704666, -47.835190383251756, -311.6009845081717, 0.0800000037997961, 0.9920000471174717, 0.288000013679266, 0.0, 0.0, 0.0, 0.0, 0.0, 1.7151028158338008E9, 0.0, 2024-05-07 12:26:55.833
18.0, -652.9697027136572, -649.4111879058182, -55.05693719768897, -312.94360859226435, 0.0800000037997961, 0.9920000471174717, 0.288000013679266, 0.0, 0.0, 0.0, 0.0, 0.0, 1.7151028158344333E9, 0.0, 2024-05-07 12:26:55.834
18.0, -659.9558358308859, -653.1548277614638, -57.07274327380583, -314.02443967945874, 0.0800000037997961, 0.9920000471174717, 0.288000013679266, 0.0, 0.0, 0.0, 0.0, 0.0, 1.7151028158344333E9, 0.0, 2024-05-07 12:26:55.834
19.0, -654.6788369934075, -645.3720959536731, -54.286517806816846, -316.1487028542906, 0.0800000037997961, 0.9920000471174717, 0.288000013679266, 0.0, 0.0, 0.0, 0.0, 0.0, 1.7151028158482332E9, 0.0, 2024-05-07 12:26:55.848
19.0, -648.1676711705513, -639.0741044282913, -44.87692951830104, -303.709795601666, 0.0800000037997961, 0.9920000471174717, 0.288000013679266, 0.0, 0.0, 0.0, 0.0, 0.0, 1.7151028158482332E9, 0.0, 2024-05-07 12:26:55.848
20.0, -660.4046238255687, -652.4666861696169, -62.734951806720346, -323.886555862613, 0.0800000037997961, 0.9920000471174717, 0.288000013679266, 0.0, 0.0, 0.0, 0.0, 0.0, 1.7151028158637347E9, 0.0, 2024-05-07 12:26:55.863
20.0, -664.6494102752768, -647.0812302334234, -66.70672555966303, -334.4106343379244, 0.0800000037997961, 0.9920000471174717, 0.288000013679266, 0.0, 0.0, 0.0, 0.0, 0.0, 1.7151028158637347E9, 0.0, 2024-05-07 12:26:55.863
21.0, -650.7220228402875, -632.0842314111069, -47.947387381922454, -321.28732539340854, 0.0800000037997961, 0.9760000463575125, 0.288000013679266, 0.0, 0.0, 0.0, 0.0, 0.0, 1.7151028158645127E9, 0.0, 2024-05-07 12:26:55.864
21.0, -666.8148123496212, -650.3947815941647, -61.30257012369111, -333.7898109452799, 0.0800000037997961, 0.9760000463575125, 0.288000013679266, 0.0, 0.0, 0.0, 0.0, 0.0, 1.7151028158645127E9, 0.0, 2024-05-07 12:26:55.864
22.0, -651.8963514263742, -640.2259936146438, -53.20194681966677, -325.09828344825655, 0.0800000037997961, 0.9760000463575125, 0.288000013679266, 0.0, 0.0, 0.0, 0.0, 0.0, 1.7151028158780985E9, 0.0, 2024-05-07 12:26:55.878
22.0, -649.2522421577014, -642.9299412826076, -54.45855320477858, -331.2653784751892, 0.0800000037997961, 0.9760000463575125, 0.288000013679266, 0.0, 0.0, 0.0, 0.0, 0.0, 1.7151028158780985E9, 0.0, 2024-05-07 12:26:55.878
23.0, -655.142584587913, -645.7797450488433, -60.54337043268606, -333.4831391489133, 0.0800000037997961, 0.9760000463575125, 0.288000013679266, 0.0, 0.0, 0.0, 0.0, 0.0, 1.7151028158937223E9, 0.0, 2024-05-07 12:26:55.893
23.0, -650.4677096433006, -651.7374056782573, -56.14898798475042, -331.4860325725749, 0.0800000037997961, 0.9760000463575125, 0.288000013679266, 0.0, 0.0, 0.0, 0.0, 0.0, 1.7151028158937223E9, 0.0, 2024-05-07 12:26:55.893
24.0, -652.3750586207025, -651.6289485795423, -68.51683713821694, -348.52127687074244, 0.0800000037997961, 0.9760000463575125, 0.288000013679266, 0.0, 0.0, 0.0, 0.0, 0.0, 1.715102815894484E9, 0.0, 2024-05-07 12:26:55.894
24.0, -645.9573902967386, -648.3153972188011, -57.07648317376152, -341.1985527575016, 0.0800000037997961, 0.9760000463575125, 0.288000013679266, 0.0, 0.0, 0.0, 0.0, 0.0, 1.715102815894484E9, 0.0, 2024-05-07 12:26:55.894
25.0, -672.8323113783263, -665.4478789158165, -78.45749122044072, -350.5670021465048, 0.0800000037997961, 0.9760000463575125, 0.288000013679266, 0.0, 0.0, 0.0, 0.0, 0.0, 1.7151028159080048E9, 0.0, 2024-05-07 12:26:55.908
25.0, -665.4871478653513, -652.3881482705474, -67.83617534628138, -350.7165981447324, 0.0800000037997961, 0.9760000463575125, 0.288000013679266, 0.0, 0.0, 0.0, 0.0, 0.0, 1.7151028159080048E9, 0.0, 2024-05-07 12:26:55.908
26.0, -652.3488793210126, -649.2728116074577, -59.541077244561166, -343.5359902298078, 0.0800000037997961, 0.9760000463575125, 0.288000013679266, 0.0, 0.0, 0.0, 0.0, 0.0, 1.7151028159239323E9, 0.0, 2024-05-07 12:26:55.923
26.0, -673.9056626656093, -657.8895411053672, -79.9459714028053, -356.8425542721525, 0.0800000037997961, 0.9760000463575125, 0.288000013679266, 0.0, 0.0, 0.0, 0.0, 0.0, 1.7151028159239323E9, 0.0, 2024-05-07 12:26:55.923
27.0, -664.9860012712888, -648.087263321504, -70.51020381459966, -357.85232726018876, 0.0800000037997961, 0.9760000463575125, 0.288000013679266, 0.0, 0.0, 0.0, 0.0, 0.0, 1.7151028159244645E9, 0.0, 2024-05-07 12:26:55.924
27.0, -658.3401990500279, -653.5549970567226, -62.22258551279083, -356.7602764731273, 0.0800000037997961, 0.9760000463575125, 0.288000013679266, 0.0, 0.0, 0.0, 0.0, 0.0, 1.7151028159244645E9, 0.0, 2024-05-07 12:26:55.924
28.0, -661.1862629163079, -650.3349431948736, -56.343462782446295, -358.9181987475604, 0.0800000037997961, 0.9760000463575125, 0.288000013679266, 0.0, 0.0, 0.0, 0.0, 0.0, 1.7151028159383285E9, 0.0, 2024-05-07 12:26:55.938
28.0, -657.711895857472, -657.4669324103743, -61.590542420279235, -360.55253502819687, 0.0800000037997961, 0.9760000463575125, 0.288000013679266, 0.0, 0.0, 0.0, 0.0, 0.0, 1.7151028159383285E9, 0.0, 2024-05-07 12:26:55.938
29.0, -659.7277019335888, -639.7547662202269, -64.39920728700235, -357.77752926107496, 0.0800000037997961, 0.9760000463575125, 0.288000013679266, 0.0, 0.0, 0.0, 0.0, 0.0, 1.7151028159538877E9, 0.0, 2024-05-07 12:26:55.953
29.0, -647.5131886783056, -635.7044545682147, -65.6071949726902, -350.9484719419852, 0.0800000037997961, 0.9760000463575125, 0.288000013679266, 0.0, 0.0, 0.0, 0.0, 0.0, 1.7151028159538877E9, 0.0, 2024-05-07 12:26:55.953
30.0, -664.2866399795748, -650.9707261873409, -84.41515184985474, -356.37880667764693, 0.0800000037997961, 0.9760000463575125, 0.3200000151991844, 0.0, 0.0, 0.0, 0.0, 0.0, 1.7151028159547129E9, 0.0, 2024-05-07 12:26:55.954
30.0, -649.4541967553087, -644.3735426655039, -73.93595217401162, -364.6103264801204, 0.0800000037997961, 0.9760000463575125, 0.3200000151991844, 0.0, 0.0, 0.0, 0.0, 0.0, 1.7151028159547129E9, 0.0, 2024-05-07 12:26:55.954
31.0, -658.4785753483884, -637.2490332499146, -60.09084253804758, -339.88958777301013, 0.0800000037997961, 0.9760000463575125, 0.3200000151991844, 0.0, 0.0, 0.0, 0.0, 0.0, 1.7151028159680598E9, 0.0, 2024-05-07 12:26:55.968
31.0, -653.8410994033329, -648.8763822121546, -70.17361281858757, -343.3938740314916, 0.0800000037997961, 0.9760000463575125, 0.3200000151991844, 0.0, 0.0, 0.0, 0.0, 0.0, 1.7151028159680598E9, 0.0, 2024-05-07 12:26:55.968
32.0, -655.9017842789181, -646.7708185371011, -62.4544593100436, -330.592196483165, 0.0800000037997961, 0.9760000463575125, 0.3200000151991844, 0.0, 0.0, 0.0, 0.0, 0.0, 1.715102815983786E9, 0.0, 2024-05-07 12:26:55.983
32.0, -651.9786292253993, -638.2887254375964, -64.81807608203962, -332.32377016264945, 0.0800000037997961, 0.9760000463575125, 0.3200000151991844, 0.0, 0.0, 0.0, 0.0, 0.0, 1.715102815983786E9, 0.0, 2024-05-07 12:26:55.983
33.0, -656.1486176759936, -643.1842544795945, -60.341415835078806, -332.8623157562688, 0.0800000037997961, 0.9760000463575125, 0.3200000151991844, 0.0, 0.0, 0.0, 0.0, 0.0, 1.7151028159844491E9, 0.0, 2024-05-07 12:26:55.984
33.0, -664.7466476741247, -643.2216534791514, -71.2394843059592, -335.76821802183986, 0.0800000037997961, 0.9760000463575125, 0.3200000151991844, 0.0, 0.0, 0.0, 0.0, 0.0, 1.7151028159844491E9, 0.0, 2024-05-07 12:26:55.984
34.0, -668.8081790260039, -641.3105646017939, -70.52516341442242, -336.87896830867976, 0.0800000037997961, 0.9760000463575125, 0.3200000151991844, 0.0, 0.0, 0.0, 0.0, 0.0, 1.7151028159981134E9, 0.0, 2024-05-07 12:26:55.998
34.0, -644.4539505145513, -634.5002067824826, -56.799730577040464, -329.2383526992053, 0.0800000037997961, 0.9760000463575125, 0.3200000151991844, 0.0, 0.0, 0.0, 0.0, 0.0, 1.7151028159981134E9, 0.0, 2024-05-07 12:26:55.998
35.0, -674.5227461582981, -645.9742198465392, -85.70915723452345, -356.016036381945, 0.0800000037997961, 0.9760000463575125, 0.3200000151991844, 0.0, 0.0, 0.0, 0.0, 0.0, 1.715102816013935E9, 0.0, 2024-05-07 12:26:56.013
35.0, -668.1125576342456, -642.4100951887667, -79.41864550905302, -340.9741587601602, 0.0800000037997961, 0.9760000463575125, 0.3200000151991844, 0.0, 0.0, 0.0, 0.0, 0.0, 1.715102816013935E9, 0.0, 2024-05-07 12:26:56.013
36.0, -654.3908646968193, -631.9009763132781, -72.26421689381823, -347.59004178177565, 0.0800000037997961, 0.9760000463575125, 0.3200000151991844, 0.0, 0.0, 0.0, 0.0, 0.0, 1.715102816014441E9, 0.0, 2024-05-07 12:26:56.014
36.0, -662.4129501017742, -644.5119189638644, -86.9508040198125, -352.33971472550184, 0.0800000037997961, 0.9760000463575125, 0.3200000151991844, 0.0, 0.0, 0.0, 0.0, 0.0, 1.715102816014441E9, 0.0, 2024-05-07 12:26:56.014
37.0, -667.3570978431962, -634.8779366780072, -78.24431692296639, -351.06814874056727, 0.0800000037997961, 0.9760000463575125, 0.3200000151991844, 0.0, 0.0, 0.0, 0.0, 0.0, 1.7151028160284681E9, 0.0, 2024-05-07 12:26:56.028
37.0, -659.9707954307087, -638.1279097395018, -72.11462089559063, -351.44213873613626, 0.0800000037997961, 0.9760000463575125, 0.3200000151991844, 0.0, 0.0, 0.0, 0.0, 0.0, 1.7151028160284681E9, 0.0, 2024-05-07 12:26:56.028
38.0, -663.5498796883039, -641.9089485947043, -74.39969976851717, -349.8227620553225, 0.0800000037997961, 0.9760000463575125, 0.3200000151991844, 0.0, 0.0, 0.0, 0.0, 0.0, 1.715102816043723E9, 0.0, 2024-05-07 12:26:56.043
38.0, -663.5498796883039, -648.9736196110025, -78.70432461751625, -358.3871329538524, 0.0800000037997961, 0.9760000463575125, 0.3200000151991844, 0.0, 0.0, 0.0, 0.0, 0.0, 1.715102816043723E9, 0.0, 2024-05-07 12:26:56.043
39.0, -661.3732579140924, -644.1416688682511, -76.3855866449885, -363.93714448809624, 0.0800000037997961, 0.9760000463575125, 0.3200000151991844, 0.0, 0.0, 0.0, 0.0, 0.0, 1.7151028160445485E9, 0.0, 2024-05-07 12:26:56.044
39.0, -660.3036465267651, -631.8785369135439, -69.1638398305513, -334.96039963141084, 0.0800000037997961, 0.9760000463575125, 0.3200000151991844, 0.0, 0.0, 0.0, 0.0, 0.0, 1.7151028160445485E9, 0.0, 2024-05-07 12:26:56.044
40.0, -674.9416149533354, -658.5851624971256, -85.59696023585275, -356.2516500791535, 0.0800000037997961, 0.9760000463575125, 0.3040000144392252, 0.0, 0.0, 0.0, 0.0, 0.0, 1.7151028160745018E9, 0.0, 2024-05-07 12:26:56.074
40.0, -679.6538888975047, -652.3283098712564, -80.96696409070864, -357.4745973646641, 0.0800000037997961, 0.9760000463575125, 0.3040000144392252, 0.0, 0.0, 0.0, 0.0, 0.0, 1.7151028160745018E9, 0.0, 2024-05-07 12:26:56.074
41.0, -663.7705337856896, -638.5916573340073, -70.74581751180813, -344.33258892036974, 0.0800000037997961, 0.9920000471174717, 0.3040000144392252, 0.0, 0.0, 0.0, 0.0, 0.0, 1.715102816075169E9, 0.0, 2024-05-07 12:26:56.075
41.0, -699.2659242651425, -650.6154356915504, -85.17809144081548, -359.8456939365715, 0.0800000037997961, 0.9920000471174717, 0.3040000144392252, 0.0, 0.0, 0.0, 0.0, 0.0, 1.715102816075169E9, 0.0, 2024-05-07 12:26:56.075
42.0, -689.4636464812793, -655.107055538334, -80.38353969762102, -343.1732199341059, 0.0800000037997961, 0.9920000471174717, 0.3040000144392252, 0.0, 0.0, 0.0, 0.0, 0.0, 1.7151028160760543E9, 0.0, 2024-05-07 12:26:56.076
42.0, -669.2046084213071, -649.7253395020962, -67.89227384561673, -331.36261587403715, 0.0800000037997961, 0.9920000471174717, 0.3040000144392252, 0.0, 0.0, 0.0, 0.0, 0.0, 1.7151028160760543E9, 0.0, 2024-05-07 12:26:56.076
43.0, -657.4725422603078, -637.256513049826, -60.70792603073642, -337.0472638066858, 0.0800000037997961, 0.9920000471174717, 0.3040000144392252, 0.0, 0.0, 0.0, 0.0, 0.0, 1.715102816088046E9, 0.0, 2024-05-07 12:26:56.088
43.0, -672.7575133792125, -657.2612379128113, -74.13790677161887, -338.2776908921078, 0.0800000037997961, 0.9920000471174717, 0.3040000144392252, 0.0, 0.0, 0.0, 0.0, 0.0, 1.715102816088046E9, 0.0, 2024-05-07 12:26:56.088
44.0, -675.9102490418591, -650.2564052958041, -75.06914186058566, -338.15427419357, 0.0800000037997961, 0.9920000471174717, 0.3040000144392252, 0.0, 0.0, 0.0, 0.0, 0.0, 1.7151028161038995E9, 0.0, 2024-05-07 12:26:56.103
44.0, -672.2675864850171, -644.1641082679853, -73.10569438384846, -321.62017648946494, 0.0800000037997961, 0.9920000471174717, 0.3040000144392252, 0.0, 0.0, 0.0, 0.0, 0.0, 1.7151028161038995E9, 0.0, 2024-05-07 12:26:56.103
45.0, -678.7189139085822, -660.1708800783381, -86.27762202778831, -347.03653658833355, 0.0800000037997961, 0.9920000471174717, 0.3040000144392252, 0.0, 0.0, 0.0, 0.0, 0.0, 1.7151028161045136E9, 0.0, 2024-05-07 12:26:56.104
45.0, -665.6554433633573, -656.8535888176411, -79.93101180298254, -340.3907343670726, 0.0800000037997961, 0.9920000471174717, 0.3040000144392252, 0.0, 0.0, 0.0, 0.0, 0.0, 1.7151028161045136E9, 0.0, 2024-05-07 12:26:56.104
46.0, -647.4870093786158, -636.8600836545229, -63.68114649550989, -332.1928736642003, 0.0800000037997961, 0.9920000471174717, 0.3040000144392252, 0.0, 0.0, 0.0, 0.0, 0.0, 1.71510281611814E9, 0.0, 2024-05-07 12:26:56.118
46.0, -663.0562128941528, -645.7273864494637, -82.39560587378219, -339.7624311745167, 0.0800000037997961, 0.9920000471174717, 0.3040000144392252, 0.0, 0.0, 0.0, 0.0, 0.0, 1.71510281611814E9, 0.0, 2024-05-07 12:26:56.118
47.0, -659.1293179406784, -640.5064861113206, -77.2008848353289, -332.80995715688914, 0.0800000037997961, 0.9920000471174717, 0.3040000144392252, 0.0, 0.0, 0.0, 0.0, 0.0, 1.7151028161339023E9, 0.0, 2024-05-07 12:26:56.133
47.0, -650.2769747455604, -635.6221767691895, -67.39112725155428, -322.94784097373486, 0.0800000037997961, 0.9920000471174717, 0.3040000144392252, 0.0, 0.0, 0.0, 0.0, 0.0, 1.7151028161339023E9, 0.0, 2024-05-07 12:26:56.133
48.0, -651.2904876335524, -641.2694257022813, -74.75125036435202, -321.8183911871165, 0.0800000037997961, 0.9920000471174717, 0.3040000144392252, 0.0, 0.0, 0.0, 0.0, 0.0, 1.715102816134506E9, 0.0, 2024-05-07 12:26:56.134
48.0, -651.1408916353248, -642.5335118873045, -83.15480556478724, -324.12964935973287, 0.0800000037997961, 0.9920000471174717, 0.3040000144392252, 0.0, 0.0, 0.0, 0.0, 0.0, 1.715102816134506E9, 0.0, 2024-05-07 12:26:56.134
49.0, -651.5261013307609, -632.8845700016245, -75.25239695841447, -324.4101418564096, 0.0800000037997961, 0.9920000471174717, 0.3040000144392252, 0.0, 0.0, 0.0, 0.0, 0.0, 1.715102816148081E9, 0.0, 2024-05-07 12:26:56.148
49.0, -635.941938215401, -623.8003530092537, -66.02606376772746, -316.72090754751116, 0.0800000037997961, 0.9920000471174717, 0.3040000144392252, 0.0, 0.0, 0.0, 0.0, 0.0, 1.715102816148081E9, 0.0, 2024-05-07 12:26:56.148
50.0, -649.0914264596067, -649.6954203024507, -85.1706116409041, -343.14330073446035, 0.0800000037997961, 0.9920000471174717, 0.3200000151991844, 0.0, 0.0, 0.0, 0.0, 0.0, 1.7151028161640413E9, 0.0, 2024-05-07 12:26:56.164
50.0, -639.2629693760537, -646.6174826389179, -70.89167361008003, -336.4152207141742, 0.0800000037997961, 0.9920000471174717, 0.3200000151991844, 0.0, 0.0, 0.0, 0.0, 0.0, 1.7151028161640413E9, 0.0, 2024-05-07 12:26:56.164
51.0, -628.1367670078762, -634.2571132853627, -68.9394458332099, -335.62610182352364, 0.0800000037997961, 0.9760000463575125, 0.3200000151991844, 0.0, 0.0, 0.0, 0.0, 0.0, 1.7151028161645374E9, 0.0, 2024-05-07 12:26:56.164
51.0, -642.0267554433085, -653.0463706627488, -89.93898408440873, -349.2355977622792, 0.0800000037997961, 0.9760000463575125, 0.3200000151991844, 0.0, 0.0, 0.0, 0.0, 0.0, 1.7151028161645374E9, 0.0, 2024-05-07 12:26:56.164
52.0, -645.0560744074173, -653.1548277614638, -83.86912645632401, -353.7197378091514, 0.06400000303983688, 0.9760000463575125, 0.3200000151991844, 0.0, 0.0, 0.0, 0.0, 0.0, 1.7151028161780064E9, 0.0, 2024-05-07 12:26:56.178
52.0, -635.9232387156226, -642.0248854933307, -75.18133885925636, -349.71056505665183, 0.06400000303983688, 0.9760000463575125, 0.3200000151991844, 0.0, 0.0, 0.0, 0.0, 0.0, 1.7151028161780064E9, 0.0, 2024-05-07 12:26:56.178
53.0, -638.885239480529, -647.2831848310307, -86.2439629281871, -355.7953822845593, 0.06400000303983688, 0.9760000463575125, 0.3200000151991844, 0.0, 0.0, 0.0, 0.0, 0.0, 1.71510281619395E9, 0.0, 2024-05-07 12:26:56.193
53.0, -642.490503037814, -654.4899720456451, -92.3213003561832, -351.03074974101037, 0.06400000303983688, 0.9760000463575125, 0.3200000151991844, 0.0, 0.0, 0.0, 0.0, 0.0, 1.71510281619395E9, 0.0, 2024-05-07 12:26:56.193
54.0, -642.0978135424666, -651.6551278792322, -106.5890186871402, -364.16153848543763, 0.06400000303983688, 0.9760000463575125, 0.3200000151991844, 0.0, 0.0, 0.0, 0.0, 0.0, 1.7151028161947129E9, 0.0, 2024-05-07 12:26:56.194
54.0, -636.9292718037032, -637.8100182432681, -89.83052698569372, -343.352735131979, 0.06400000303983688, 0.9760000463575125, 0.3200000151991844, 0.0, 0.0, 0.0, 0.0, 0.0, 1.7151028161947129E9, 0.0, 2024-05-07 12:26:56.194
55.0, -664.0996449817903, -655.0135580394417, -108.2570140673779, -363.0994068980217, 0.06400000303983688, 0.9760000463575125, 0.3200000151991844, 0.0, 0.0, 0.0, 0.0, 0.0, 1.7151028162081668E9, 0.0, 2024-05-07 12:26:56.208
55.0, -656.9227769668214, -651.2512186840177, -98.65295098116621, -352.7174446210265, 0.06400000303983688, 0.9760000463575125, 0.3200000151991844, 0.0, 0.0, 0.0, 0.0, 0.0, 1.7151028162081668E9, 0.0, 2024-05-07 12:26:56.208
56.0, -642.972950132098, -636.2130809621885, -90.32793367980048, -348.45395867154, 0.06400000303983688, 0.9760000463575125, 0.3200000151991844, 0.0, 0.0, 0.0, 0.0, 0.0, 1.7151028162237332E9, 0.0, 2024-05-07 12:26:56.223
56.0, -656.1373979761265, -647.6160359270871, -108.61230456316844, -347.9827312771231, 0.06400000303983688, 0.9760000463575125, 0.3200000151991844, 0.0, 0.0, 0.0, 0.0, 0.0, 1.7151028162237332E9, 0.0, 2024-05-07 12:26:56.223
57.0, -653.2202760106884, -636.6020305575803, -87.89699870860204, -349.9424388539046, 0.06400000303983688, 0.9760000463575125, 0.3200000151991844, 0.0, 0.0, 0.0, 0.0, 0.0, 1.7151028162245395E9, 0.0, 2024-05-07 12:26:56.224
57.0, -632.456351456698, -638.8347508311272, -84.57222764799371, -350.2491106502712, 0.06400000303983688, 0.9760000463575125, 0.3200000151991844, 0.0, 0.0, 0.0, 0.0, 0.0, 1.7151028162245395E9, 0.0, 2024-05-07 12:26:56.224
58.0, -626.0237235329114, -647.2196065317839, -87.0966601180844, -338.61802178807557, 0.06400000303983688, 0.9760000463575125, 0.3200000151991844, 0.0, 0.0, 0.0, 0.0, 0.0, 1.7151028162385633E9, 0.0, 2024-05-07 12:26:56.238
58.0, -640.6841313592158, -642.8962821830064, -96.24071550974622, -352.03304292913526, 0.06400000303983688, 0.9760000463575125, 0.3200000151991844, 0.0, 0.0, 0.0, 0.0, 0.0, 1.7151028162385633E9, 0.0, 2024-05-07 12:26:56.238
59.0, -654.3235464976169, -639.9081021184102, -97.83391289087012, -359.92797173559666, 0.06400000303983688, 0.9760000463575125, 0.3200000151991844, 0.0, 0.0, 0.0, 0.0, 0.0, 1.7151028162538579E9, 0.0, 2024-05-07 12:26:56.253
59.0, -643.5264553255402, -634.410449183546, -81.37087328592315, -349.36649426072836, 0.06400000303983688, 0.9760000463575125, 0.3200000151991844, 0.0, 0.0, 0.0, 0.0, 0.0, 1.7151028162538579E9, 0.0, 2024-05-07 12:26:56.253
60.0, -654.0056550013833, -642.6980674853548, -97.08219299977645, -362.2504496080801, 0.06400000303983688, 0.9760000463575125, 0.3040000144392252, 0.0, 0.0, 0.0, 0.0, 0.0, 1.7151028162546473E9, 0.0, 2024-05-07 12:26:56.254
60.0, -656.7208223692141, -636.6469093570486, -89.27702179225162, -356.74531687330455, 0.06400000303983688, 0.9760000463575125, 0.3040000144392252, 0.0, 0.0, 0.0, 0.0, 0.0, 1.7151028162546473E9, 0.0, 2024-05-07 12:26:56.254
61.0, -652.4573364197277, -631.7588601149619, -82.63495947094634, -343.4275331310928, 0.06400000303983688, 0.9760000463575125, 0.3040000144392252, 0.0, 0.0, 0.0, 0.0, 0.0, 1.7151028162681508E9, 0.0, 2024-05-07 12:26:56.268
61.0, -660.0194141301326, -636.8900028541684, -93.00944194803014, -352.3883334249258, 0.06400000303983688, 0.9760000463575125, 0.3040000144392252, 0.0, 0.0, 0.0, 0.0, 0.0, 1.7151028162681508E9, 0.0, 2024-05-07 12:26:56.268
62.0, -662.6410839990713, -638.1690486390144, -82.77333576930687, -349.5460094586015, 0.09600000455975533, 0.9760000463575125, 0.3040000144392252, 0.0, 0.0, 0.0, 0.0, 0.0, 1.71510281628348E9, 0.0, 2024-05-07 12:26:56.283
62.0, -641.8734195451252, -622.0089409304783, -71.76307029975578, -337.6493876995519, 0.09600000455975533, 0.9760000463575125, 0.3040000144392252, 0.0, 0.0, 0.0, 0.0, 0.0, 1.71510281628348E9, 0.0, 2024-05-07 12:26:56.283
63.0, -652.9510032138787, -644.119229468517, -83.58115415973589, -342.9862249363214, 0.09600000455975533, 0.9760000463575125, 0.3040000144392252, 0.0, 0.0, 0.0, 0.0, 0.0, 1.7151028162988064E9, 0.0, 2024-05-07 12:26:56.298
63.0, -642.9093718328513, -648.5996296154335, -72.19689869461581, -339.26128458045423, 0.09600000455975533, 0.9760000463575125, 0.3040000144392252, 0.0, 0.0, 0.0, 0.0, 0.0, 1.7151028162988064E9, 0.0, 2024-05-07 12:26:56.298
64.0, -646.8848854857497, -640.0539582166821, -68.1615466424264, -331.99465896654874, 0.09600000455975533, 0.9760000463575125, 0.3040000144392252, 0.0, 0.0, 0.0, 0.0, 0.0, 1.7151028162995787E9, 0.0, 2024-05-07 12:26:56.299
64.0, -634.3300413344987, -634.7657396793365, -57.45047316933051, -316.13748315442353, 0.09600000455975533, 0.9760000463575125, 0.3040000144392252, 0.0, 0.0, 0.0, 0.0, 0.0, 1.7151028162995787E9, 0.0, 2024-05-07 12:26:56.299
65.0, -658.4187369490974, -641.175928203389, -82.3918659738265, -338.09817569423467, 0.09600000455975533, 0.9760000463575125, 0.3040000144392252, 0.0, 0.0, 0.0, 0.0, 0.0, 1.7151028163137646E9, 0.0, 2024-05-07 12:26:56.313
65.0, -658.5608531474136, -633.819544990547, -73.11691408371553, -342.2345050452277, 0.09600000455975533, 0.9760000463575125, 0.3040000144392252, 0.0, 0.0, 0.0, 0.0, 0.0, 1.7151028163137646E9, 0.0, 2024-05-07 12:26:56.313
66.0, -638.402792386245, -630.1282637342811, -67.70901874778792, -335.6747205229476, 0.09600000455975533, 0.9760000463575125, 0.3040000144392252, 0.0, 0.0, 0.0, 0.0, 0.0, 1.7151028163144095E9, 0.0, 2024-05-07 12:26:56.314
66.0, -652.2890409217216, -653.0613302625716, -80.2788224988617, -344.1568136224523, 0.09600000455975533, 0.9760000463575125, 0.3040000144392252, 0.0, 0.0, 0.0, 0.0, 0.0, 1.7151028163144095E9, 0.0, 2024-05-07 12:26:56.314
67.0, -651.5148816308938, -644.0519112693146, -77.18218533555046, -334.98657893110067, 0.09600000455975533, 0.9760000463575125, 0.3040000144392252, 0.0, 0.0, 0.0, 0.0, 0.0, 1.7151028163282917E9, 0.0, 2024-05-07 12:26:56.328
67.0, -640.8711263570003, -637.5145661467686, -76.16867244755849, -337.50727150123566, 0.09600000455975533, 0.9760000463575125, 0.3040000144392252, 0.0, 0.0, 0.0, 0.0, 0.0, 1.7151028163282917E9, 0.0, 2024-05-07 12:26:56.328
68.0, -645.0672941072844, -638.318644637242, -73.81253547547385, -337.4586528018117, 0.09600000455975533, 0.9760000463575125, 0.3040000144392252, 0.0, 0.0, 0.0, 0.0, 0.0, 1.7151028163437488E9, 0.0, 2024-05-07 12:26:56.343
68.0, -643.3581598275341, -642.3539966894314, -76.24721034662798, -338.0196377951652, 0.09600000455975533, 0.9760000463575125, 0.3040000144392252, 0.0, 0.0, 0.0, 0.0, 0.0, 1.7151028163437488E9, 0.0, 2024-05-07 12:26:56.343
69.0, -651.0324345366098, -637.7053010445088, -81.22127728769556, -336.28806411568075, 0.09600000455975533, 0.9760000463575125, 0.3040000144392252, 0.0, 0.0, 0.0, 0.0, 0.0, 1.7151028163444371E9, 0.0, 2024-05-07 12:26:56.344
69.0, -631.697151765693, -626.208848580718, -58.4901653570123, -333.4120810497552, 0.09600000455975533, 0.9760000463575125, 0.3040000144392252, 0.0, 0.0, 0.0, 0.0, 0.0, 1.7151028163444371E9, 0.0, 2024-05-07 12:26:56.344
70.0, -643.5339351254515, -644.6054164627567, -89.7258097869344, -349.48243115935475, 0.09600000455975533, 0.9760000463575125, 0.288000013679266, 0.0, 0.0, 0.0, 0.0, 0.0, 1.715102816358278E9, 0.0, 2024-05-07 12:26:56.358
70.0, -657.1172517645173, -647.5113187283278, -88.44302410213277, -352.36963392514735, 0.09600000455975533, 0.9760000463575125, 0.288000013679266, 0.0, 0.0, 0.0, 0.0, 0.0, 1.715102816358278E9, 0.0, 2024-05-07 12:26:56.358
71.0, -636.7609763056971, -645.506732352078, -68.47569823870435, -337.91866049636155, 0.09600000455975533, 0.9760000463575125, 0.288000013679266, 0.0, 0.0, 0.0, 0.0, 0.0, 1.715102816373762E9, 0.0, 2024-05-07 12:26:56.373
71.0, -646.3239004923962, -645.5815303511918, -85.15939194103703, -354.37422030139714, 0.09600000455975533, 0.9760000463575125, 0.288000013679266, 0.0, 0.0, 0.0, 0.0, 0.0, 1.715102816373762E9, 0.0, 2024-05-07 12:26:56.373
72.0, -654.3871247968636, -647.182207532227, -80.92582519119605, -339.650234175846, 0.09600000455975533, 0.9760000463575125, 0.288000013679266, 0.0, 0.0, 0.0, 0.0, 0.0, 1.7151028163744123E9, 0.0, 2024-05-07 12:26:56.374
72.0, -648.8408531625755, -647.6796142263338, -71.98746429709718, -337.9410998960957, 0.09600000455975533, 0.9760000463575125, 0.288000013679266, 0.0, 0.0, 0.0, 0.0, 0.0, 1.7151028163744123E9, 0.0, 2024-05-07 12:26:56.374
73.0, -644.6372056123801, -650.656574591063, -82.33576747449115, -342.2756439447403, 0.09600000455975533, 0.9760000463575125, 0.288000013679266, 0.0, 0.0, 0.0, 0.0, 0.0, 1.715102816388185E9, 0.0, 2024-05-07 12:26:56.388
73.0, -659.6977827339433, -653.1473479615524, -78.66692561795935, -342.5262172417715, 0.09600000455975533, 0.9760000463575125, 0.288000013679266, 0.0, 0.0, 0.0, 0.0, 0.0, 1.715102816388185E9, 0.0, 2024-05-07 12:26:56.388
74.0, -654.1440312997438, -647.2532656313851, -69.16757973050699, -346.8046627910808, 0.09600000455975533, 0.9760000463575125, 0.288000013679266, 0.0, 0.0, 0.0, 0.0, 0.0, 1.715102816403698E9, 0.0, 2024-05-07 12:26:56.403
74.0, -642.7373364348896, -644.2202067673206, -60.22547893645242, -320.9395146975294, 0.09600000455975533, 0.9760000463575125, 0.288000013679266, 0.0, 0.0, 0.0, 0.0, 0.0, 1.715102816403698E9, 0.0, 2024-05-07 12:26:56.403
75.0, -661.425616513472, -654.6994064431638, -79.4261253089644, -339.0219309832901, 0.09600000455975533, 0.9760000463575125, 0.288000013679266, 0.0, 0.0, 0.0, 0.0, 0.0, 1.7151028164044876E9, 0.0, 2024-05-07 12:26:56.404
75.0, -652.2516419221647, -649.5196450045332, -68.96936503285542, -333.25126535166055, 0.09600000455975533, 0.9760000463575125, 0.288000013679266, 0.0, 0.0, 0.0, 0.0, 0.0, 1.7151028164044876E9, 0.0, 2024-05-07 12:26:56.404
76.0, -644.9476173087023, -647.013912034221, -52.296891030389816, -337.21929920464754, 0.09600000455975533, 0.9760000463575125, 0.288000013679266, 0.0, 0.0, 0.0, 0.0, 0.0, 1.7151028164182856E9, 0.0, 2024-05-07 12:26:56.418
76.0, -646.7465091873892, -657.3098566122353, -68.67391293635592, -343.29663663264364, 0.09600000455975533, 0.9760000463575125, 0.288000013679266, 0.0, 0.0, 0.0, 0.0, 0.0, 1.7151028164182856E9, 0.0, 2024-05-07 12:26:56.418
77.0, -635.822261416819, -645.8620228478685, -67.55942274956033, -332.25271206349134, 0.09600000455975533, 0.9760000463575125, 0.288000013679266, 0.0, 0.0, 0.0, 0.0, 0.0, 1.7151028164339547E9, 0.0, 2024-05-07 12:26:56.433
77.0, -636.8170748050325, -632.5816381052136, -61.190373125020415, -326.238952934742, 0.09600000455975533, 0.9760000463575125, 0.288000013679266, 0.0, 0.0, 0.0, 0.0, 0.0, 1.7151028164339547E9, 0.0, 2024-05-07 12:26:56.433
78.0, -634.7750894292258, -635.1808685744181, -61.45216612191871, -318.49736002646387, 0.09600000455975533, 0.9760000463575125, 0.288000013679266, 0.0, 0.0, 0.0, 0.0, 0.0, 1.7151028164345157E9, 0.0, 2024-05-07 12:26:56.434
78.0, -647.412211379502, -644.5829770630226, -69.6799460244365, -331.7179063698277, 0.09600000455975533, 0.9760000463575125, 0.288000013679266, 0.0, 0.0, 0.0, 0.0, 0.0, 1.7151028164345157E9, 0.0, 2024-05-07 12:26:56.434
79.0, -642.8906723330729, -641.7705722963437, -72.58210839005187, -340.17756006959826, 0.09600000455975533, 0.9760000463575125, 0.288000013679266, 0.0, 0.0, 0.0, 0.0, 0.0, 1.7151028164481995E9, 0.0, 2024-05-07 12:26:56.448
79.0, -625.3991602403112, -634.2907723849639, -60.46857243357226, -334.2984373392537, 0.09600000455975533, 0.9760000463575125, 0.288000013679266, 0.0, 0.0, 0.0, 0.0, 0.0, 1.7151028164481995E9, 0.0, 2024-05-07 12:26:56.448
80.0, -645.5796604012139, -645.8134041484445, -81.41201218543574, -345.6752130044624, 0.09600000455975533, 0.9760000463575125, 0.3200000151991844, 0.0, 0.0, 0.0, 0.0, 0.0, 1.71510281646398E9, 0.0, 2024-05-07 12:26:56.463
80.0, -637.5239158966579, -631.2838928205892, -73.54326267866418, -340.2299186689779, 0.09600000455975533, 0.9760000463575125, 0.3200000151991844, 0.0, 0.0, 0.0, 0.0, 0.0, 1.71510281646398E9, 0.0, 2024-05-07 12:26:56.463
81.0, -627.4336658162065, -628.8080790499225, -66.51225076196715, -327.10286982450634, 0.09600000455975533, 0.9920000471174717, 0.3200000151991844, 0.0, 0.0, 0.0, 0.0, 0.0, 1.7151028164646113E9, 0.0, 2024-05-07 12:26:56.464
81.0, -651.6495180292986, -639.9642006177455, -80.76874939305708, -347.55264278221875, 0.09600000455975533, 0.9920000471174717, 0.3200000151991844, 0.0, 0.0, 0.0, 0.0, 0.0, 1.7151028164646113E9, 0.0, 2024-05-07 12:26:56.464
82.0, -648.4444237672724, -640.0950971161947, -77.30186213413253, -348.29688287340105, 0.0800000037997961, 0.9920000471174717, 0.3200000151991844, 0.0, 0.0, 0.0, 0.0, 0.0, 1.7151028164780953E9, 0.0, 2024-05-07 12:26:56.478
82.0, -641.3199143516831, -625.4346892898902, -77.94138502655551, -337.5334508009255, 0.0800000037997961, 0.9920000471174717, 0.3200000151991844, 0.0, 0.0, 0.0, 0.0, 0.0, 1.7151028164780953E9, 0.0, 2024-05-07 12:26:56.478
83.0, -641.0169824552722, -636.1420228630304, -81.09786058915779, -339.29120378009975, 0.0800000037997961, 0.9920000471174717, 0.3200000151991844, 0.0, 0.0, 0.0, 0.0, 0.0, 1.7151028164938223E9, 0.0, 2024-05-07 12:26:56.493
83.0, -655.1313648880459, -629.3503645434976, -90.11475938232616, -338.1654938934371, 0.0800000037997961, 0.9920000471174717, 0.3200000151991844, 0.0, 0.0, 0.0, 0.0, 0.0, 1.7151028164938223E9, 0.0, 2024-05-07 12:26:56.493
84.0, -661.5452933120541, -629.3241852438077, -84.6881645466201, -343.4312730310485, 0.0800000037997961, 0.9920000471174717, 0.3200000151991844, 0.0, 0.0, 0.0, 0.0, 0.0, 1.7151028164944615E9, 0.0, 2024-05-07 12:26:56.494
84.0, -631.816828564275, -627.704808562994, -69.84824152244255, -347.4142664838582, 0.0800000037997961, 0.9920000471174717, 0.3200000151991844, 0.0, 0.0, 0.0, 0.0, 0.0, 1.7151028164944615E9, 0.0, 2024-05-07 12:26:56.494
85.0, -652.1057858238928, -652.440506869927, -95.42541731940582, -362.878752800636, 0.0800000037997961, 0.9920000471174717, 0.3200000151991844, 0.0, 0.0, 0.0, 0.0, 0.0, 1.7151028165081694E9, 0.0, 2024-05-07 12:26:56.508
85.0, -653.5980059062131, -644.5006992639974, -90.15215838188305, -344.5644627176225, 0.0800000037997961, 0.9920000471174717, 0.3200000151991844, 0.0, 0.0, 0.0, 0.0, 0.0, 1.7151028165081694E9, 0.0, 2024-05-07 12:26:56.508
86.0, -643.3618997274898, -628.4901875536889, -77.55617533111945, -339.22388558089733, 0.0800000037997961, 0.9920000471174717, 0.3200000151991844, 0.0, 0.0, 0.0, 0.0, 0.0, 1.7151028165239575E9, 0.0, 2024-05-07 12:26:56.523
86.0, -662.6897026984952, -639.4406146239489, -101.01656775316224, -351.1691260393709, 0.0800000037997961, 0.9920000471174717, 0.3200000151991844, 0.0, 0.0, 0.0, 0.0, 0.0, 1.7151028165239575E9, 0.0, 2024-05-07 12:26:56.523
87.0, -648.9119112617336, -631.0632387232035, -99.28499407367781, -340.43561316654086, 0.0800000037997961, 0.9920000471174717, 0.3200000151991844, 0.0, 0.0, 0.0, 0.0, 0.0, 1.715102816524588E9, 0.0, 2024-05-07 12:26:56.524
87.0, -655.5277942833491, -625.6890024868771, -87.43699101405218, -326.4521272322163, 0.0800000037997961, 0.9920000471174717, 0.3200000151991844, 0.0, 0.0, 0.0, 0.0, 0.0, 1.715102816524588E9, 0.0, 2024-05-07 12:26:56.524
88.0, -655.3258396857418, -633.8606838900596, -78.63326651835814, -327.63767551817, 0.0800000037997961, 0.9920000471174717, 0.3200000151991844, 0.0, 0.0, 0.0, 0.0, 0.0, 1.7151028165381136E9, 0.0, 2024-05-07 12:26:56.538
88.0, -659.6753433342092, -636.0186061644927, -89.33312029158697, -332.47710606083274, 0.0800000037997961, 0.9920000471174717, 0.3200000151991844, 0.0, 0.0, 0.0, 0.0, 0.0, 1.7151028165381136E9, 0.0, 2024-05-07 12:26:56.538
89.0, -659.2041159397922, -639.1825615270063, -92.14178515831009, -341.76701755076647, 0.0800000037997961, 0.9920000471174717, 0.3200000151991844, 0.0, 0.0, 0.0, 0.0, 0.0, 1.7151028165536857E9, 0.0, 2024-05-07 12:26:56.553
89.0, -636.1289332131855, -632.8621306018904, -72.39511339226738, -331.5346512719989, 0.0800000037997961, 0.9920000471174717, 0.3200000151991844, 0.0, 0.0, 0.0, 0.0, 0.0, 1.7151028165536857E9, 0.0, 2024-05-07 12:26:56.553
90.0, -653.6690640053712, -640.5625846106559, -90.79168127430603, -346.07164239976555, 0.0800000037997961, 0.9920000471174717, 0.3040000144392252, 0.0, 0.0, 0.0, 0.0, 0.0, 1.715102816554444E9, 0.0, 2024-05-07 12:26:56.554
90.0, -657.7455549570732, -631.8074788143858, -86.5394150246866, -336.4152207141742, 0.0800000037997961, 0.9920000471174717, 0.3040000144392252, 0.0, 0.0, 0.0, 0.0, 0.0, 1.715102816554444E9, 0.0, 2024-05-07 12:26:56.554
91.0, -638.197097888682, -632.5068401060998, -62.84714880539104, -328.1238625124097, 0.0800000037997961, 0.9760000463575125, 0.3040000144392252, 0.0, 0.0, 0.0, 0.0, 0.0, 1.715102816568282E9, 0.0, 2024-05-07 12:26:56.568
91.0, -650.3517727446742, -640.7009609090164, -87.47439001360908, -353.93291210662574, 0.0800000037997961, 0.9760000463575125, 0.3040000144392252, 0.0, 0.0, 0.0, 0.0, 0.0, 1.715102816568282E9, 0.0, 2024-05-07 12:26:56.568
92.0, -643.4628770262934, -636.4636542592198, -88.53652160102502, -357.1754053682089, 0.0800000037997961, 0.9760000463575125, 0.3040000144392252, 0.0, 0.0, 0.0, 0.0, 0.0, 1.7151028165839028E9, 0.0, 2024-05-07 12:26:56.583
92.0, -640.0483483667485, -623.6844161106274, -74.1304269717075, -343.40135383140296, 0.0800000037997961, 0.9760000463575125, 0.3040000144392252, 0.0, 0.0, 0.0, 0.0, 0.0, 1.7151028165839028E9, 0.0, 2024-05-07 12:26:56.583
93.0, -644.577367213089, -626.4182829782367, -82.20861087599769, -333.73371244594455, 0.0800000037997961, 0.9760000463575125, 0.3040000144392252, 0.0, 0.0, 0.0, 0.0, 0.0, 1.7151028165846713E9, 0.0, 2024-05-07 12:26:56.584
93.0, -640.7252702587284, -629.7729732384905, -79.19425151171163, -347.0253168884665, 0.0800000037997961, 0.9760000463575125, 0.3040000144392252, 0.0, 0.0, 0.0, 0.0, 0.0, 1.7151028165846713E9, 0.0, 2024-05-07 12:26:56.584
94.0, -649.607532653492, -631.467147918418, -88.36822610301897, -354.40787940099835, 0.0800000037997961, 0.9760000463575125, 0.3040000144392252, 0.0, 0.0, 0.0, 0.0, 0.0, 1.7151028165981808E9, 0.0, 2024-05-07 12:26:56.598
94.0, -624.4380059516989, -628.621084052138, -66.71420535957441, -335.1137355295941, 0.0800000037997961, 0.9760000463575125, 0.3040000144392252, 0.0, 0.0, 0.0, 0.0, 0.0, 1.7151028165981808E9, 0.0, 2024-05-07 12:26:56.598
95.0, -643.3357204278, -646.2846315428615, -84.74800294591114, -355.6196069866419, 0.0800000037997961, 0.9760000463575125, 0.3040000144392252, 0.0, 0.0, 0.0, 0.0, 0.0, 1.7151028166138432E9, 0.0, 2024-05-07 12:26:56.613
95.0, -643.8256473219953, -640.5999836102128, -79.40742580918595, -346.2100186981261, 0.0800000037997961, 0.9760000463575125, 0.3040000144392252, 0.0, 0.0, 0.0, 0.0, 0.0, 1.7151028166138432E9, 0.0, 2024-05-07 12:26:56.613
96.0, -626.5286100269295, -641.8565899953246, -70.67475941265002, -337.66434729937464, 0.0800000037997961, 0.9760000463575125, 0.3040000144392252, 0.0, 0.0, 0.0, 0.0, 0.0, 1.7151028166144626E9, 0.0, 2024-05-07 12:26:56.614
96.0, -643.9079251210205, -651.5691101802513, -86.25518262805417, -355.0848012929782, 0.0800000037997961, 0.9760000463575125, 0.3040000144392252, 0.0, 0.0, 0.0, 0.0, 0.0, 1.7151028166144626E9, 0.0, 2024-05-07 12:26:56.614
97.0, -643.1001067305915, -648.6220690151677, -74.28750276984647, -343.70428572781384, 0.0800000037997961, 0.9760000463575125, 0.3040000144392252, 0.0, 0.0, 0.0, 0.0, 0.0, 1.7151028166283033E9, 0.0, 2024-05-07 12:26:56.628
97.0, -634.1168670370243, -637.4435080476105, -75.74232385260984, -344.269010621123, 0.0800000037997961, 0.9760000463575125, 0.3040000144392252, 0.0, 0.0, 0.0, 0.0, 0.0, 1.7151028166283033E9, 0.0, 2024-05-07 12:26:56.628
98.0, -636.2112110122107, -630.7341275271028, -85.30524803930894, -346.9766981890425, 0.0800000037997961, 0.9760000463575125, 0.3040000144392252, 0.0, 0.0, 0.0, 0.0, 0.0, 1.7151028166436563E9, 0.0, 2024-05-07 12:26:56.643
98.0, -644.1397989182733, -644.9868862582371, -85.92233153199777, -354.3443011017516, 0.0800000037997961, 0.9760000463575125, 0.3040000144392252, 0.0, 0.0, 0.0, 0.0, 0.0, 1.7151028166436563E9, 0.0, 2024-05-07 12:26:56.643
99.0, -646.7390293874778, -636.6768285566941, -79.91231230320409, -351.9732045298442, 0.0800000037997961, 0.9760000463575125, 0.3040000144392252, 0.0, 0.0, 0.0, 0.0, 0.0, 1.7151028166443949E9, 0.0, 2024-05-07 12:26:56.644
99.0, -641.9893564437516, -631.1978751216084, -70.59996141353622, -341.22099215723574, 0.0800000037997961, 0.9760000463575125, 0.3040000144392252, 0.0, 0.0, 0.0, 0.0, 0.0, 1.7151028166443949E9, 0.0, 2024-05-07 12:26:56.644
100.0, -655.1837234874256, -644.9981059581041, -84.48994984896854, -353.0465558171272, 0.0800000037997961, 0.9760000463575125, 0.3200000151991844, 0.0, 0.0, 0.0, 0.0, 0.0, 1.7151028166589017E9, 0.0, 2024-05-07 12:26:56.658
100.0, -654.3684252970852, -634.9452548772097, -73.70033847680315, -343.36021493189037, 0.0800000037997961, 0.9760000463575125, 0.3200000151991844, 0.0, 0.0, 0.0, 0.0, 0.0, 1.7151028166589017E9, 0.0, 2024-05-07 12:26:56.658
0.0, -639.0666246283799, -631.166085971985, -64.81807608203962, -342.31117299431935, 0.0800000037997961, 0.9760000463575125, 0.3200000151991844, 0.0, 0.0, 0.0, 0.0, 0.0, 1.7151028166594455E9, 0.0, 2024-05-07 12:26:56.659
1.0, -654.5834695445374, -643.6573518239893, -84.11595985339954, -353.676728959661, 0.0800000037997961, 0.9760000463575125, 0.3200000151991844, 0.0, 0.0, 0.0, 0.0, 0.0, 1.71510281667329E9, 0.0, 2024-05-07 12:26:56.673
1.0, -647.4813995286822, -636.4169055097736, -80.66403219429776, -337.19498985493556, 0.0800000037997961, 0.9760000463575125, 0.3200000151991844, 0.0, 0.0, 0.0, 0.0, 0.0, 1.71510281667329E9, 0.0, 2024-05-07 12:26:56.673
2.0, -635.5997373694554, -627.1905723190866, -70.33816841663793, -343.64631727850065, 0.0800000037997961, 0.9760000463575125, 0.3200000151991844, 0.0, 0.0, 0.0, 0.0, 0.0, 1.7151028166887639E9, 0.0, 2024-05-07 12:26:56.688
2.0, -641.1721883034334, -640.9085253565572, -67.29762975266203, -356.0740048312582, 0.0800000037997961, 0.9760000463575125, 0.3200000151991844, 0.0, 0.0, 0.0, 0.0, 0.0, 1.7151028166887639E9, 0.0, 2024-05-07 12:26:56.688
3.0, -646.5613841395825, -634.494596932549, -77.79926882823929, -338.8854246349074, 0.0800000037997961, 0.9760000463575125, 0.3200000151991844, 0.0, 0.0, 0.0, 0.0, 0.0, 1.715102816689523E9, 0.0, 2024-05-07 12:26:56.689
3.0, -639.2872787257656, -636.5852010077797, -72.69430538872257, -349.3758440106176, 0.0800000037997961, 0.9760000463575125, 0.3200000151991844, 0.0, 0.0, 0.0, 0.0, 0.0, 1.715102816689523E9, 0.0, 2024-05-07 12:26:56.689
4.0, -630.8014457263052, -635.2874557231553, -44.99660631688312, -331.0353746279143, 0.0800000037997961, 0.9760000463575125, 0.3200000151991844, 0.0, 0.0, 0.0, 0.0, 0.0, 1.7151028167032893E9, 0.0, 2024-05-07 12:26:56.703
4.0, -651.9692794755101, -658.1681636520661, -64.74327808292583, -357.1099571189843, 0.0800000037997961, 0.9760000463575125, 0.3200000151991844, 0.0, 0.0, 0.0, 0.0, 0.0, 1.7151028167032893E9, 0.0, 2024-05-07 12:26:56.703
5.0, -637.3761898484081, -645.1981906057335, -56.00313188647851, -327.4974292698316, 0.0800000037997961, 0.9760000463575125, 0.3200000151991844, 0.0, 0.0, 0.0, 0.0, 0.0, 1.7151028167189345E9, 0.0, 2024-05-07 12:26:56.718
5.0, -630.50225372985, -641.3984522507526, -34.85773753700778, -320.5038163526915, 0.0800000037997961, 0.9760000463575125, 0.3200000151991844, 0.0, 0.0, 0.0, 0.0, 0.0, 1.7151028167189345E9, 0.0, 2024-05-07 12:26:56.718
6.0, -639.5902106221765, -651.1408916353248, -52.59608302684501, -328.05093446327373, 0.0800000037997961, 0.9760000463575125, 0.3200000151991844, 0.0, 0.0, 0.0, 0.0, 0.0, 1.7151028167195506E9, 0.0, 2024-05-07 12:26:56.719
6.0, -633.0491255996749, -642.0379751431756, -46.298091501463205, -311.44203876005486, 0.0800000037997961, 0.9760000463575125, 0.3200000151991844, 0.0, 0.0, 0.0, 0.0, 0.0, 1.7151028167195506E9, 0.0, 2024-05-07 12:26:56.719
7.0, -637.3799297483638, -641.5480482489802, -32.254767167847604, -311.7599302562885, 0.0800000037997961, 0.9760000463575125, 0.3200000151991844, 0.0, 0.0, 0.0, 0.0, 0.0, 1.715102816733038E9, 0.0, 2024-05-07 12:26:56.733
7.0, -639.0329655287787, -639.2293102764525, -17.743955339770764, -309.73664438026026, 0.0800000037997961, 0.9760000463575125, 0.3200000151991844, 0.0, 0.0, 0.0, 0.0, 0.0, 1.715102816733038E9, 0.0, 2024-05-07 12:26:56.733
8.0, -646.157474944368, -639.9623306677677, -37.10541741037741, -306.6736663165502, 0.0800000037997961, 0.9760000463575125, 0.3200000151991844, 0.0, 0.0, 0.0, 0.0, 0.0, 1.71510281674902E9, 0.0, 2024-05-07 12:26:56.749
8.0, -661.3863475639373, -646.0172286960296, -46.372889500577, -323.2451630202122, 0.0800000037997961, 0.9760000463575125, 0.3200000151991844, 0.0, 0.0, 0.0, 0.0, 0.0, 1.71510281674902E9, 0.0, 2024-05-07 12:26:56.749
9.0, -645.1140428567305, -637.2172441002913, -36.77256631432101, -305.22258513374254, 0.0800000037997961, 0.9760000463575125, 0.3200000151991844, 0.0, 0.0, 0.0, 0.0, 0.0, 1.715102816749486E9, 0.0, 2024-05-07 12:26:56.749
9.0, -670.4705645563081, -652.3114803214557, -42.43477484723553, -323.6154131158255, 0.0800000037997961, 0.9760000463575125, 0.3200000151991844, 0.0, 0.0, 0.0, 0.0, 0.0, 1.715102816749486E9, 0.0, 2024-05-07 12:26:56.749
10.0, -671.2522036470473, -650.9875557371415, -49.23765286663547, -316.19171170378104, 0.0800000037997961, 0.9760000463575125, 0.3040000144392252, 0.0, 0.0, 0.0, 0.0, 0.0, 1.715102816763112E9, 0.0, 2024-05-07 12:26:56.763
10.0, -656.9246469167992, -628.1367670078762, -31.753620573785156, -305.18892603414133, 0.0800000037997961, 0.9760000463575125, 0.3040000144392252, 0.0, 0.0, 0.0, 0.0, 0.0, 1.715102816763112E9, 0.0, 2024-05-07 12:26:56.763
11.0, -680.9834233317524, -644.7718420107849, -50.57279715081677, -322.11197333363816, 0.0800000037997961, 1.008000047877431, 0.3040000144392252, 0.0, 0.0, 0.0, 0.0, 0.0, 1.7151028167789116E9, 0.0, 2024-05-07 12:26:56.778
11.0, -679.1583521533757, -646.4286176911555, -47.65567518537864, -324.6214462039061, 0.0800000037997961, 1.008000047877431, 0.3040000144392252, 0.0, 0.0, 0.0, 0.0, 0.0, 1.7151028167789116E9, 0.0, 2024-05-07 12:26:56.778
12.0, -674.4423383092508, -636.7123576062731, -52.375428929459304, -314.3554208255373, 0.0800000037997961, 1.008000047877431, 0.3040000144392252, 0.0, 0.0, 0.0, 0.0, 0.0, 1.7151028167794814E9, 0.0, 2024-05-07 12:26:56.779
12.0, -675.4782905969769, -631.6298335664906, -59.40644084615633, -319.56136156385764, 0.0800000037997961, 1.008000047877431, 0.3040000144392252, 0.0, 0.0, 0.0, 0.0, 0.0, 1.7151028167794814E9, 0.0, 2024-05-07 12:26:56.779
13.0, -676.8358742808923, -638.3653933866881, -65.45385907450691, -322.3139279312454, 0.0800000037997961, 1.008000047877431, 0.3040000144392252, 0.0, 0.0, 0.0, 0.0, 0.0, 1.715102816793069E9, 0.0, 2024-05-07 12:26:56.793
13.0, -672.5499489316717, -637.4715572972782, -61.91965361637995, -322.3214077311568, 0.0800000037997961, 1.008000047877431, 0.3040000144392252, 0.0, 0.0, 0.0, 0.0, 0.0, 1.715102816793069E9, 0.0, 2024-05-07 12:26:56.793
14.0, -648.0610840218142, -617.9156204289757, -49.23391296667978, -311.5691953585483, 0.0800000037997961, 1.008000047877431, 0.3040000144392252, 0.0, 0.0, 0.0, 0.0, 0.0, 1.715102816808758E9, 0.0, 2024-05-07 12:26:56.808
14.0, -676.0542351901531, -634.6367131308652, -82.02535577816889, -336.94441655790433, 0.0800000037997961, 1.008000047877431, 0.3040000144392252, 0.0, 0.0, 0.0, 0.0, 0.0, 1.715102816808758E9, 0.0, 2024-05-07 12:26:56.808
15.0, -674.318921610713, -629.4606915921904, -76.62868014210835, -329.01582865184173, 0.0800000037997961, 1.008000047877431, 0.3040000144392252, 0.0, 0.0, 0.0, 0.0, 0.0, 1.7151028168095033E9, 0.0, 2024-05-07 12:26:56.809
15.0, -657.638967808336, -616.6066554444842, -64.36180828744546, -313.45036503626034, 0.0800000037997961, 1.008000047877431, 0.3040000144392252, 0.0, 0.0, 0.0, 0.0, 0.0, 1.7151028168095033E9, 0.0, 2024-05-07 12:26:56.809
16.0, -667.5497026909143, -634.6591525305994, -77.18218533555046, -328.7390760551207, 0.0800000037997961, 1.008000047877431, 0.3040000144392252, 0.0, 0.0, 0.0, 0.0, 0.0, 1.7151028168230085E9, 0.0, 2024-05-07 12:26:56.823
16.0, -661.4125268636271, -636.0840544137172, -78.77538271667436, -338.2234623427503, 0.0800000037997961, 1.008000047877431, 0.3040000144392252, 0.0, 0.0, 0.0, 0.0, 0.0, 1.7151028168230085E9, 0.0, 2024-05-07 12:26:56.823
17.0, -658.9666322926059, -623.929379557725, -71.422739403788, -326.7756285783835, 0.0800000037997961, 1.008000047877431, 0.3040000144392252, 0.0, 0.0, 0.0, 0.0, 0.0, 1.7151028168392484E9, 0.0, 2024-05-07 12:26:56.839
17.0, -658.603861996904, -628.2788832061924, -74.74003066448495, -318.7311037736945, 0.0800000037997961, 1.008000047877431, 0.3040000144392252, 0.0, 0.0, 0.0, 0.0, 0.0, 1.7151028168392484E9, 0.0, 2024-05-07 12:26:56.839
18.0, -668.0134502854198, -633.8737735399045, -81.26241618720815, -339.842839023564, 0.0800000037997961, 1.008000047877431, 0.3040000144392252, 0.0, 0.0, 0.0, 0.0, 0.0, 1.715102816839518E9, 0.0, 2024-05-07 12:26:56.839
18.0, -660.425193275325, -634.4684176328592, -85.15565204108134, -343.08159238519147, 0.0800000037997961, 1.008000047877431, 0.3040000144392252, 0.0, 0.0, 0.0, 0.0, 0.0, 1.715102816839518E9, 0.0, 2024-05-07 12:26:56.839
19.0, -647.4066015295684, -628.3312418055721, -55.85353588825092, -321.52480904059485, 0.0800000037997961, 1.008000047877431, 0.3040000144392252, 0.0, 0.0, 0.0, 0.0, 0.0, 1.7151028168529754E9, 0.0, 2024-05-07 12:26:56.852
19.0, -663.753704235889, -640.9646238558926, -81.66258548246697, -339.86527842329815, 0.0800000037997961, 1.008000047877431, 0.3040000144392252, 0.0, 0.0, 0.0, 0.0, 0.0, 1.7151028168529754E9, 0.0, 2024-05-07 12:26:56.852
20.0, -661.715458760038, -643.5077558257617, -86.36737962672487, -342.4869482922368, 0.0800000037997961, 1.008000047877431, 0.288000013679266, 0.0, 0.0, 0.0, 0.0, 0.0, 1.7151028168687563E9, 0.0, 2024-05-07 12:26:56.868
20.0, -645.0766438571736, -631.0426692734472, -72.95235848566517, -332.1760441143997, 0.0800000037997961, 1.008000047877431, 0.288000013679266, 0.0, 0.0, 0.0, 0.0, 0.0, 1.7151028168687563E9, 0.0, 2024-05-07 12:26:56.868
21.0, -668.4435387803242, -648.436943967361, -93.9892957364209, -334.71917608426884, 0.0800000037997961, 0.9760000463575125, 0.288000013679266, 0.0, 0.0, 0.0, 0.0, 0.0, 1.715102816869745E9, 0.0, 2024-05-07 12:26:56.869
21.0, -673.6943583181128, -646.6268323888071, -91.45738346641883, -334.9136508819647, 0.0800000037997961, 0.9760000463575125, 0.288000013679266, 0.0, 0.0, 0.0, 0.0, 0.0, 1.715102816869745E9, 0.0, 2024-05-07 12:26:56.869
22.0, -659.0339504918084, -652.5358743187971, -67.6043015490286, -333.20077670225874, 0.09600000455975533, 0.9760000463575125, 0.288000013679266, 0.0, 0.0, 0.0, 0.0, 0.0, 1.715102816883285E9, 0.0, 2024-05-07 12:26:56.883
22.0, -663.3834541402757, -638.7244237824343, -70.26711031747982, -321.124639745336, 0.09600000455975533, 0.9760000463575125, 0.288000013679266, 0.0, 0.0, 0.0, 0.0, 0.0, 1.715102816883285E9, 0.0, 2024-05-07 12:26:56.883
23.0, -657.2724576126784, -649.2298027579673, -78.82026151614264, -332.2171830139123, 0.09600000455975533, 0.9760000463575125, 0.288000013679266, 0.0, 0.0, 0.0, 0.0, 0.0, 1.7151028168989632E9, 0.0, 2024-05-07 12:26:56.898
23.0, -664.2698104297742, -640.7514495584182, -79.70287790568545, -328.15565166203305, 0.09600000455975533, 0.9760000463575125, 0.288000013679266, 0.0, 0.0, 0.0, 0.0, 0.0, 1.7151028168989632E9, 0.0, 2024-05-07 12:26:56.898
24.0, -645.6077096508816, -639.6070401719771, -63.52781059732661, -309.860061078798, 0.09600000455975533, 0.9760000463575125, 0.288000013679266, 0.0, 0.0, 0.0, 0.0, 0.0, 1.715102816899554E9, 0.0, 2024-05-07 12:26:56.899
24.0, -671.6374133424833, -657.8839312554337, -79.80385520448908, -332.4640164109878, 0.09600000455975533, 0.9760000463575125, 0.288000013679266, 0.0, 0.0, 0.0, 0.0, 0.0, 1.715102816899554E9, 0.0, 2024-05-07 12:26:56.899
25.0, -667.3103490937501, -639.9810301675461, -75.79842235194519, -330.9456170289777, 0.09600000455975533, 0.9760000463575125, 0.288000013679266, 0.0, 0.0, 0.0, 0.0, 0.0, 1.7151028169132464E9, 0.0, 2024-05-07 12:26:56.913
25.0, -670.7173979533836, -642.5466015371494, -66.98721805633977, -319.942831359338, 0.09600000455975533, 0.9760000463575125, 0.288000013679266, 0.0, 0.0, 0.0, 0.0, 0.0, 1.7151028169132464E9, 0.0, 2024-05-07 12:26:56.913
26.0, -670.0778750609607, -642.2960282401182, -76.59876094246283, -333.82533999485895, 0.09600000455975533, 0.9760000463575125, 0.288000013679266, 0.0, 0.0, 0.0, 0.0, 0.0, 1.7151028169288578E9, 0.0, 2024-05-07 12:26:56.928
26.0, -670.6089408546686, -635.6951048183255, -84.19823765242472, -322.29522843146697, 0.09600000455975533, 0.9760000463575125, 0.288000013679266, 0.0, 0.0, 0.0, 0.0, 0.0, 1.7151028169288578E9, 0.0, 2024-05-07 12:26:56.928
27.0, -668.5445160791278, -627.2653703182004, -74.33612146927044, -328.00605566380545, 0.09600000455975533, 0.9760000463575125, 0.288000013679266, 0.0, 0.0, 0.0, 0.0, 0.0, 1.7151028169294243E9, 0.0, 2024-05-07 12:26:56.929
27.0, -664.669979725033, -628.3424615054391, -69.44059242727235, -328.0284950635396, 0.09600000455975533, 0.9760000463575125, 0.288000013679266, 0.0, 0.0, 0.0, 0.0, 0.0, 1.7151028169294243E9, 0.0, 2024-05-07 12:26:56.929
28.0, -676.6114802835509, -635.9942968147807, -74.0556289725937, -338.0289875450544, 0.09600000455975533, 0.9760000463575125, 0.288000013679266, 0.0, 0.0, 0.0, 0.0, 0.0, 1.7151028169430966E9, 0.0, 2024-05-07 12:26:56.943
28.0, -664.3595680287108, -634.2963822348975, -79.60190060688183, -335.6653707730584, 0.09600000455975533, 0.9760000463575125, 0.288000013679266, 0.0, 0.0, 0.0, 0.0, 0.0, 1.7151028169430966E9, 0.0, 2024-05-07 12:26:56.943
29.0, -649.9796526990831, -626.5173903270625, -65.76427077082917, -328.16313146194443, 0.09600000455975533, 0.9760000463575125, 0.288000013679266, 0.0, 0.0, 0.0, 0.0, 0.0, 1.7151028169587352E9, 0.0, 2024-05-07 12:26:56.958
29.0, -670.893173251301, -648.496782366652, -82.7621160694398, -341.64173090225086, 0.09600000455975533, 0.9760000463575125, 0.288000013679266, 0.0, 0.0, 0.0, 0.0, 0.0, 1.7151028169587352E9, 0.0, 2024-05-07 12:26:56.958
30.0, -667.7666168883443, -643.1562052299269, -83.42033846164122, -343.52664047991857, 0.09600000455975533, 0.9760000463575125, 0.288000013679266, 0.0, 0.0, 0.0, 0.0, 0.0, 1.7151028169594896E9, 0.0, 2024-05-07 12:26:56.959
30.0, -671.2709031468257, -642.9841698319651, -74.93824536213651, -333.6121656973846, 0.09600000455975533, 0.9760000463575125, 0.288000013679266, 0.0, 0.0, 0.0, 0.0, 0.0, 1.7151028169594896E9, 0.0, 2024-05-07 12:26:56.959
31.0, -667.4936041915789, -642.6587985358201, -88.07651390647516, -342.9207766870968, 0.09600000455975533, 0.9920000471174717, 0.288000013679266, 0.0, 0.0, 0.0, 0.0, 0.0, 1.7151028169732127E9, 0.0, 2024-05-07 12:26:56.973
31.0, -662.1268477551639, -649.4205376557074, -80.17410530010238, -355.35968393972144, 0.09600000455975533, 0.9920000471174717, 0.288000013679266, 0.0, 0.0, 0.0, 0.0, 0.0, 1.7151028169732127E9, 0.0, 2024-05-07 12:26:56.973
32.0, -659.5126576861367, -629.7748431884684, -68.27000374114141, -343.98290827451274, 0.09600000455975533, 0.9920000471174717, 0.288000013679266, 0.0, 0.0, 0.0, 0.0, 0.0, 1.715102816988726E9, 0.0, 2024-05-07 12:26:56.988
32.0, -655.6343814320862, -626.1321806316264, -66.7179452595301, -331.7422157195397, 0.09600000455975533, 0.9920000471174717, 0.288000013679266, 0.0, 0.0, 0.0, 0.0, 0.0, 1.715102816988726E9, 0.0, 2024-05-07 12:26:56.988
33.0, -665.6685330132023, -637.968963991385, -75.47305105580017, -332.9838625048287, 0.09600000455975533, 0.9920000471174717, 0.288000013679266, 0.0, 0.0, 0.0, 0.0, 0.0, 1.7151028169894156E9, 0.0, 2024-05-07 12:26:56.989
33.0, -665.526416814886, -638.7019843827002, -70.7944362112321, -329.3337201480754, 0.09600000455975533, 0.9920000471174717, 0.288000013679266, 0.0, 0.0, 0.0, 0.0, 0.0, 1.7151028169894156E9, 0.0, 2024-05-07 12:26:56.989
34.0, -653.0912494622171, -625.5487562385388, -49.050657868850976, -322.6991376266815, 0.09600000455975533, 0.9920000471174717, 0.288000013679266, 0.0, 0.0, 0.0, 0.0, 0.0, 1.7151028170031052E9, 0.0, 2024-05-07 12:26:57.003
34.0, -670.0703952610493, -650.6547046410851, -78.51358971977606, -333.71314299618825, 0.09600000455975533, 0.9920000471174717, 0.288000013679266, 0.0, 0.0, 0.0, 0.0, 0.0, 1.7151028170031052E9, 0.0, 2024-05-07 12:26:57.003
35.0, -672.4040928333998, -647.0943198832683, -78.6482261181809, -334.00485519273207, 0.09600000455975533, 0.9920000471174717, 0.288000013679266, 0.0, 0.0, 0.0, 0.0, 0.0, 1.715102817018839E9, 0.0, 2024-05-07 12:26:57.018
35.0, -659.7707107830793, -639.9548508678563, -67.20787215372548, -319.5351822641678, 0.09600000455975533, 0.9920000471174717, 0.288000013679266, 0.0, 0.0, 0.0, 0.0, 0.0, 1.715102817018839E9, 0.0, 2024-05-07 12:26:57.018
36.0, -658.1999528016895, -644.20337721752, -80.66029229434207, -337.89809104660526, 0.09600000455975533, 0.9920000471174717, 0.288000013679266, 0.0, 0.0, 0.0, 0.0, 0.0, 1.715102817019598E9, 0.0, 2024-05-07 12:26:57.019
36.0, -657.2425384130329, -646.9522036849521, -77.49633693182841, -336.1777370669879, 0.09600000455975533, 0.9920000471174717, 0.288000013679266, 0.0, 0.0, 0.0, 0.0, 0.0, 1.715102817019598E9, 0.0, 2024-05-07 12:26:57.019
37.0, -652.7621382661164, -641.5293487492017, -78.77538271667436, -336.4357901639305, 0.09600000455975533, 0.9920000471174717, 0.288000013679266, 0.0, 0.0, 0.0, 0.0, 0.0, 1.7151028170330775E9, 0.0, 2024-05-07 12:26:57.033
37.0, -647.9002683237195, -636.4879636089318, -60.96597912767902, -335.09316607983783, 0.09600000455975533, 0.9920000471174717, 0.288000013679266, 0.0, 0.0, 0.0, 0.0, 0.0, 1.7151028170330775E9, 0.0, 2024-05-07 12:26:57.033
38.0, -657.579129409045, -630.8519343757071, -82.0178759782575, -341.7277486012317, 0.09600000455975533, 0.9920000471174717, 0.288000013679266, 0.0, 0.0, 0.0, 0.0, 0.0, 1.715102817048948E9, 0.0, 2024-05-07 12:26:57.048
38.0, -670.5640620552003, -641.9145584446378, -80.00954970205203, -335.96830266946927, 0.09600000455975533, 0.9920000471174717, 0.288000013679266, 0.0, 0.0, 0.0, 0.0, 0.0, 1.715102817048948E9, 0.0, 2024-05-07 12:26:57.048
39.0, -647.0475711338222, -618.0165977277793, -63.617568196263164, -322.93475132388994, 0.09600000455975533, 0.9920000471174717, 0.288000013679266, 0.0, 0.0, 0.0, 0.0, 0.0, 1.715102817049582E9, 0.0, 2024-05-07 12:26:57.049
39.0, -662.8748277463019, -634.1916650361381, -85.07337424205616, -344.45787556888536, 0.09600000455975533, 0.9920000471174717, 0.288000013679266, 0.0, 0.0, 0.0, 0.0, 0.0, 1.715102817049582E9, 0.0, 2024-05-07 12:26:57.049
40.0, -660.4625922748819, -636.7534965057857, -84.81158124515787, -345.05625956179574, 0.09600000455975533, 0.9920000471174717, 0.288000013679266, 0.0, 0.0, 0.0, 0.0, 0.0, 1.715102817063032E9, 0.0, 2024-05-07 12:26:57.063
40.0, -656.0158512275666, -632.4600913566537, -73.81253547547385, -337.2174292546697, 0.09600000455975533, 0.9920000471174717, 0.288000013679266, 0.0, 0.0, 0.0, 0.0, 0.0, 1.715102817063032E9, 0.0, 2024-05-07 12:26:57.063
41.0, -660.31673617661, -637.1387062012218, -85.08085404196754, -357.1211768188514, 0.09600000455975533, 1.008000047877431, 0.288000013679266, 0.0, 0.0, 0.0, 0.0, 0.0, 1.7151028170787992E9, 0.0, 2024-05-07 12:26:57.078
41.0, -666.1771594071761, -631.480237568263, -81.99169667856768, -356.2946589286439, 0.09600000455975533, 1.008000047877431, 0.288000013679266, 0.0, 0.0, 0.0, 0.0, 0.0, 1.7151028170787992E9, 0.0, 2024-05-07 12:26:57.078
42.0, -661.1432540668175, -625.5861552380957, -84.36279325047508, -351.61230418412015, 0.09600000455975533, 1.008000047877431, 0.288000013679266, 0.0, 0.0, 0.0, 0.0, 0.0, 1.7151028170794785E9, 0.0, 2024-05-07 12:26:57.079
42.0, -653.8990678526461, -631.6821921658702, -77.3130818339996, -346.2118886481039, 0.09600000455975533, 1.008000047877431, 0.288000013679266, 0.0, 0.0, 0.0, 0.0, 0.0, 1.7151028170794785E9, 0.0, 2024-05-07 12:26:57.079
43.0, -661.7491178596392, -632.7555434531532, -84.34783365065232, -347.6667097308673, 0.09600000455975533, 1.008000047877431, 0.288000013679266, 0.0, 0.0, 0.0, 0.0, 0.0, 1.715102817093043E9, 0.0, 2024-05-07 12:26:57.093
43.0, -666.431472604163, -637.8305876930244, -89.80808758595958, -351.2682333881967, 0.09600000455975533, 1.008000047877431, 0.288000013679266, 0.0, 0.0, 0.0, 0.0, 0.0, 1.715102817093043E9, 0.0, 2024-05-07 12:26:57.093
44.0, -650.2377057960257, -625.9302260340191, -68.73375133564696, -328.4623234583996, 0.09600000455975533, 1.008000047877431, 0.288000013679266, 0.0, 0.0, 0.0, 0.0, 0.0, 1.7151028171089804E9, 0.0, 2024-05-07 12:26:57.108
44.0, -671.1736657479778, -643.0477481312118, -87.9119583084248, -339.57356622675434, 0.09600000455975533, 1.008000047877431, 0.288000013679266, 0.0, 0.0, 0.0, 0.0, 0.0, 1.7151028171089804E9, 0.0, 2024-05-07 12:26:57.108
45.0, -673.6719189183787, -646.1032463950105, -92.4334973548539, -347.45727533334866, 0.09600000455975533, 1.008000047877431, 0.288000013679266, 0.0, 0.0, 0.0, 0.0, 0.0, 1.7151028171095295E9, 0.0, 2024-05-07 12:26:57.109
45.0, -643.0683175809681, -627.2092718188651, -63.76342429453507, -333.96745619317517, 0.09600000455975533, 1.008000047877431, 0.288000013679266, 0.0, 0.0, 0.0, 0.0, 0.0, 1.7151028171095295E9, 0.0, 2024-05-07 12:26:57.109
46.0, -655.5483637331054, -645.6058397009037, -78.07976132491603, -343.16013028426096, 0.09600000455975533, 1.008000047877431, 0.288000013679266, 0.0, 0.0, 0.0, 0.0, 0.0, 1.7151028171396904E9, 0.0, 2024-05-07 12:26:57.139
46.0, -647.1448085326701, -639.7790755699389, -78.16203912394121, -344.2559209712781, 0.09600000455975533, 1.008000047877431, 0.288000013679266, 0.0, 0.0, 0.0, 0.0, 0.0, 1.7151028171396904E9, 0.0, 2024-05-07 12:26:57.139
47.0, -637.7090409444645, -642.5466015371494, -62.16648701345548, -330.291134536732, 0.09600000455975533, 1.008000047877431, 0.288000013679266, 0.0, 0.0, 0.0, 0.0, 0.0, 1.7151028171402712E9, 0.0, 2024-05-07 12:26:57.140
47.0, -632.1253703106195, -643.227263329085, -61.201592824887484, -332.5014154105447, 0.09600000455975533, 1.008000047877431, 0.288000013679266, 0.0, 0.0, 0.0, 0.0, 0.0, 1.7151028171402712E9, 0.0, 2024-05-07 12:26:57.140
48.0, -651.1240620855242, -653.212796210777, -82.24974977551028, -346.1557901487686, 0.09600000455975533, 1.008000047877431, 0.288000013679266, 0.0, 0.0, 0.0, 0.0, 0.0, 1.71510281714099E9, 0.0, 2024-05-07 12:26:57.140
48.0, -655.914873928763, -653.4932887074538, -85.85501333279535, -343.1788297840394, 0.09600000455975533, 1.008000047877431, 0.288000013679266, 0.0, 0.0, 0.0, 0.0, 0.0, 1.71510281714099E9, 0.0, 2024-05-07 12:26:57.140
49.0, -652.6050624679774, -639.7267169705592, -68.8309887344949, -326.8766058771871, 0.09600000455975533, 1.008000047877431, 0.288000013679266, 0.0, 0.0, 0.0, 0.0, 0.0, 1.7151028171532395E9, 0.0, 2024-05-07 12:26:57.153
49.0, -658.3420690000057, -655.8269862798043, -86.45713722566143, -350.57261199643835, 0.09600000455975533, 1.008000047877431, 0.288000013679266, 0.0, 0.0, 0.0, 0.0, 0.0, 1.7151028171532395E9, 0.0, 2024-05-07 12:26:57.153
50.0, -657.8334426060319, -650.8529193387367, -77.49259703187272, -344.4316962691955, 0.09600000455975533, 1.008000047877431, 0.288000013679266, 0.0, 0.0, 0.0, 0.0, 0.0, 1.7151028171852028E9, 0.0, 2024-05-07 12:26:57.185
50.0, -647.6833541262895, -637.6922113946639, -70.83931501070037, -338.3693184410222, 0.09600000455975533, 1.008000047877431, 0.288000013679266, 0.0, 0.0, 0.0, 0.0, 0.0, 1.7151028171852028E9, 0.0, 2024-05-07 12:26:57.185
51.0, -669.0793217727914, -646.3351201922633, -88.32334730355069, -344.4877947685309, 0.09600000455975533, 0.9920000471174717, 0.288000013679266, 0.0, 0.0, 0.0, 0.0, 0.0, 1.7151028171858232E9, 0.0, 2024-05-07 12:26:57.185
51.0, -666.2594372062013, -647.2289562816732, -79.44108490878716, -334.8425927828066, 0.09600000455975533, 0.9920000471174717, 0.288000013679266, 0.0, 0.0, 0.0, 0.0, 0.0, 1.7151028171858232E9, 0.0, 2024-05-07 12:26:57.185
52.0, -662.3437619525939, -633.8363745403476, -84.17579825269058, -342.75248118909076, 0.09600000455975533, 0.9920000471174717, 0.288000013679266, 0.0, 0.0, 0.0, 0.0, 0.0, 1.7151028171866078E9, 0.0, 2024-05-07 12:26:57.186
52.0, -662.0857088556513, -635.5642083198763, -78.01244312571362, -341.37993790535256, 0.09600000455975533, 0.9920000471174717, 0.288000013679266, 0.0, 0.0, 0.0, 0.0, 0.0, 1.7151028171866078E9, 0.0, 2024-05-07 12:26:57.186
53.0, -656.0121113276109, -649.7720882515423, -80.92956509115174, -347.2254015360959, 0.09600000455975533, 0.9920000471174717, 0.288000013679266, 0.0, 0.0, 0.0, 0.0, 0.0, 1.7151028171874633E9, 0.0, 2024-05-07 12:26:57.187
53.0, -660.2942967768759, -642.430664638523, -84.16083865286782, -334.8725119824521, 0.09600000455975533, 0.9920000471174717, 0.288000013679266, 0.0, 0.0, 0.0, 0.0, 0.0, 1.7151028171874633E9, 0.0, 2024-05-07 12:26:57.187
54.0, -636.8526038546115, -636.4879636089318, -68.84594833431765, -324.284855207894, 0.09600000455975533, 0.9920000471174717, 0.288000013679266, 0.0, 0.0, 0.0, 0.0, 0.0, 1.7151028171981208E9, 0.0, 2024-05-07 12:26:57.198
54.0, -650.2152663962916, -648.3621459682472, -87.49682941334322, -337.98036884563044, 0.09600000455975533, 0.9920000471174717, 0.288000013679266, 0.0, 0.0, 0.0, 0.0, 0.0, 1.7151028171981208E9, 0.0, 2024-05-07 12:26:57.198
55.0, -662.0034310566261, -639.7865553698502, -86.71893022255972, -339.0724196326919, 0.09600000455975533, 0.9920000471174717, 0.288000013679266, 0.0, 0.0, 0.0, 0.0, 0.0, 1.715102817213329E9, 0.0, 2024-05-07 12:26:57.213
55.0, -665.5077173151076, -628.8099489999004, -73.16179288318381, -321.52480904059485, 0.09600000455975533, 0.9920000471174717, 0.288000013679266, 0.0, 0.0, 0.0, 0.0, 0.0, 1.715102817213329E9, 0.0, 2024-05-07 12:26:57.213
56.0, -655.7690178304911, -654.0954126003198, -86.61795292375609, -338.503954839427, 0.09600000455975533, 0.9920000471174717, 0.288000013679266, 0.0, 0.0, 0.0, 0.0, 0.0, 1.7151028172287252E9, 0.0, 2024-05-07 12:26:57.228
56.0, -665.3020228175446, -648.7660551634617, -82.16373207652941, -343.08159238519147, 0.09600000455975533, 0.9920000471174717, 0.288000013679266, 0.0, 0.0, 0.0, 0.0, 0.0, 1.7151028172287252E9, 0.0, 2024-05-07 12:26:57.228
57.0, -659.3219227883965, -645.0934734069742, -68.15406684251502, -333.7430621958338, 0.09600000455975533, 0.9920000471174717, 0.288000013679266, 0.0, 0.0, 0.0, 0.0, 0.0, 1.7151028172294855E9, 0.0, 2024-05-07 12:26:57.229
57.0, -652.8818150646985, -643.4479174264707, -62.60779520822689, -325.6162595921196, 0.09600000455975533, 0.9920000471174717, 0.288000013679266, 0.0, 0.0, 0.0, 0.0, 0.0, 1.7151028172294855E9, 0.0, 2024-05-07 12:26:57.229
58.0, -657.5043314099312, -641.4919497496448, -69.80336272297427, -331.7683950192295, 0.09600000455975533, 0.9920000471174717, 0.288000013679266, 0.0, 0.0, 0.0, 0.0, 0.0, 1.715102817243218E9, 0.0, 2024-05-07 12:26:57.243
58.0, -657.2163591133431, -643.081407230813, -71.4975374029018, -334.2068097903393, 0.09600000455975533, 0.9920000471174717, 0.288000013679266, 0.0, 0.0, 0.0, 0.0, 0.0, 1.715102817243218E9, 0.0, 2024-05-07 12:26:57.243
59.0, -663.3348354408517, -643.5825538248755, -56.43322038138285, -332.8828852060251, 0.09600000455975533, 0.9920000471174717, 0.288000013679266, 0.0, 0.0, 0.0, 0.0, 0.0, 1.71510281725897E9, 0.0, 2024-05-07 12:26:57.258
59.0, -671.5887946430594, -656.7619612687267, -80.91460549132898, -346.1520502488129, 0.09600000455975533, 0.9920000471174717, 0.288000013679266, 0.0, 0.0, 0.0, 0.0, 0.0, 1.71510281725897E9, 0.0, 2024-05-07 12:26:57.258
60.0, -660.3840543758124, -654.6937965932302, -86.78998832171783, -339.57356622675434, 0.09600000455975533, 0.9920000471174717, 0.288000013679266, 0.0, 0.0, 0.0, 0.0, 0.0, 1.7151028172594843E9, 0.0, 2024-05-07 12:26:57.259
60.0, -648.2667785193771, -649.6711109527387, -73.0907347840257, -325.82195408968255, 0.09600000455975533, 0.9920000471174717, 0.288000013679266, 0.0, 0.0, 0.0, 0.0, 0.0, 1.7151028172594843E9, 0.0, 2024-05-07 12:26:57.259
61.0, -659.4864783864468, -652.296520721633, -66.16817996604368, -325.3881256948225, 0.09600000455975533, 0.9760000463575125, 0.288000013679266, 0.0, 0.0, 0.0, 0.0, 0.0, 1.715102817273337E9, 0.0, 2024-05-07 12:26:57.273
61.0, -650.7837311895564, -656.4141505728476, -66.91615995718166, -327.03742157528177, 0.09600000455975533, 0.9760000463575125, 0.288000013679266, 0.0, 0.0, 0.0, 0.0, 0.0, 1.715102817273337E9, 0.0, 2024-05-07 12:26:57.273
62.0, -637.3313110489398, -647.0831001834013, -59.189526648726314, -327.85645966557786, 0.0800000037997961, 0.9760000463575125, 0.288000013679266, 0.0, 0.0, 0.0, 0.0, 0.0, 1.7151028172890832E9, 0.0, 2024-05-07 12:26:57.289
62.0, -632.2712264088914, -643.5825538248755, -56.89322807593271, -314.8752669193782, 0.0800000037997961, 0.9760000463575125, 0.288000013679266, 0.0, 0.0, 0.0, 0.0, 0.0, 1.7151028172890832E9, 0.0, 2024-05-07 12:26:57.289
63.0, -645.772265248932, -653.2427154104225, -63.39691409887746, -319.5838009635918, 0.0800000037997961, 0.9760000463575125, 0.288000013679266, 0.0, 0.0, 0.0, 0.0, 0.0, 1.7151028172895243E9, 0.0, 2024-05-07 12:26:57.289
63.0, -643.3488100776449, -647.7338427756913, -68.3448017402552, -316.21789100347087, 0.0800000037997961, 0.9760000463575125, 0.288000013679266, 0.0, 0.0, 0.0, 0.0, 0.0, 1.7151028172895243E9, 0.0, 2024-05-07 12:26:57.289
64.0, -631.033319523558, -631.1548662721179, -47.30412458954379, -303.5994685529731, 0.0800000037997961, 0.9760000463575125, 0.288000013679266, 0.0, 0.0, 0.0, 0.0, 0.0, 1.7151028173032763E9, 0.0, 2024-05-07 12:26:57.303
64.0, -638.2139274384826, -638.0362821905874, -75.22621765872464, -309.37387408455834, 0.0800000037997961, 0.9760000463575125, 0.288000013679266, 0.0, 0.0, 0.0, 0.0, 0.0, 1.7151028173032763E9, 0.0, 2024-05-07 12:26:57.303
65.0, -639.2237004265189, -640.7963283578865, -80.41345889726654, -310.44348547188565, 0.0800000037997961, 0.9760000463575125, 0.288000013679266, 0.0, 0.0, 0.0, 0.0, 0.0, 1.7151028173188782E9, 0.0, 2024-05-07 12:26:57.318
65.0, -632.4582214066759, -621.6480405847542, -57.06900337385014, -309.22053818637505, 0.0800000037997961, 0.9760000463575125, 0.288000013679266, 0.0, 0.0, 0.0, 0.0, 0.0, 1.7151028173188782E9, 0.0, 2024-05-07 12:26:57.318
66.0, -642.7990447841585, -633.9672710387968, -68.17276634229347, -313.1997917392291, 0.0800000037997961, 0.9760000463575125, 0.288000013679266, 0.0, 0.0, 0.0, 0.0, 0.0, 1.7151028173194792E9, 0.0, 2024-05-07 12:26:57.319
66.0, -640.9702337058261, -640.0109493671916, -70.61492101335898, -326.2408228847198, 0.0800000037997961, 0.9760000463575125, 0.288000013679266, 0.0, 0.0, 0.0, 0.0, 0.0, 1.7151028173194792E9, 0.0, 2024-05-07 12:26:57.319
67.0, -642.3689562892541, -639.801514969673, -70.14369361894205, -331.12513222685084, 0.0800000037997961, 0.9760000463575125, 0.288000013679266, 0.0, 0.0, 0.0, 0.0, 0.0, 1.7151028173335035E9, 0.0, 2024-05-07 12:26:57.333
67.0, -640.9253549063578, -640.4859166615643, -68.31488254060969, -324.7261634026654, 0.0800000037997961, 0.9760000463575125, 0.288000013679266, 0.0, 0.0, 0.0, 0.0, 0.0, 1.7151028173335035E9, 0.0, 2024-05-07 12:26:57.333
68.0, -657.8035234063864, -653.3549124090932, -86.05322803044692, -339.3566520293243, 0.0800000037997961, 0.9760000463575125, 0.288000013679266, 0.0, 0.0, 0.0, 0.0, 0.0, 1.715102817348782E9, 0.0, 2024-05-07 12:26:57.348
68.0, -654.6096488442272, -646.7539889873005, -89.22092329291627, -347.139383837115, 0.0800000037997961, 0.9760000463575125, 0.288000013679266, 0.0, 0.0, 0.0, 0.0, 0.0, 1.715102817348782E9, 0.0, 2024-05-07 12:26:57.348
69.0, -649.0783368097618, -640.9160051564686, -83.77936885738745, -336.29741386557, 0.0800000037997961, 0.9760000463575125, 0.288000013679266, 0.0, 0.0, 0.0, 0.0, 0.0, 1.715102817349532E9, 0.0, 2024-05-07 12:26:57.349
69.0, -658.603861996904, -650.7968208394013, -93.82100023841485, -345.1123580611311, 0.0800000037997961, 0.9760000463575125, 0.288000013679266, 0.0, 0.0, 0.0, 0.0, 0.0, 1.715102817349532E9, 0.0, 2024-05-07 12:26:57.349
70.0, -655.6530809318647, -638.3167746872641, -83.55123496009037, -328.85875285370275, 0.0800000037997961, 0.9760000463575125, 0.3040000144392252, 0.0, 0.0, 0.0, 0.0, 0.0, 1.7151028173632472E9, 0.0, 2024-05-07 12:26:57.363
70.0, -635.7605530675501, -625.1859859428369, -56.83338967664167, -319.32948776660487, 0.0800000037997961, 0.9760000463575125, 0.3040000144392252, 0.0, 0.0, 0.0, 0.0, 0.0, 1.7151028173632472E9, 0.0, 2024-05-07 12:26:57.363
71.0, -644.1753279678524, -644.2557358168997, -61.65412071952596, -315.08096141694114, 0.0800000037997961, 0.9760000463575125, 0.3040000144392252, 0.0, 0.0, 0.0, 0.0, 0.0, 1.7151028173791175E9, 0.0, 2024-05-07 12:26:57.379
71.0, -662.8000297471881, -645.1944507057779, -84.33287405082956, -332.78564780717716, 0.0800000037997961, 0.9760000463575125, 0.3040000144392252, 0.0, 0.0, 0.0, 0.0, 0.0, 1.7151028173791175E9, 0.0, 2024-05-07 12:26:57.379
72.0, -651.3222767831758, -642.9579905322753, -67.57812224933878, -325.30584789579734, 0.11200000531971455, 0.9760000463575125, 0.3040000144392252, 0.0, 0.0, 0.0, 0.0, 0.0, 1.715102817379554E9, 0.0, 2024-05-07 12:26:57.379
72.0, -653.2782444600016, -647.8161205747165, -80.03572900174186, -334.71917608426884, 0.11200000531971455, 0.9760000463575125, 0.3040000144392252, 0.0, 0.0, 0.0, 0.0, 0.0, 1.715102817379554E9, 0.0, 2024-05-07 12:26:57.379
73.0, -662.1193679552525, -652.3713187207468, -87.19763741688803, -348.46704832138494, 0.11200000531971455, 0.9760000463575125, 0.3040000144392252, 0.0, 0.0, 0.0, 0.0, 0.0, 1.7151028173930173E9, 0.0, 2024-05-07 12:26:57.393
73.0, -662.620514549315, -644.7082637115382, -89.33312029158697, -345.89773705182597, 0.11200000531971455, 0.9760000463575125, 0.3040000144392252, 0.0, 0.0, 0.0, 0.0, 0.0, 1.7151028173930173E9, 0.0, 2024-05-07 12:26:57.393
74.0, -667.0335964970291, -641.0581213547848, -79.37750660954043, -335.9608228695579, 0.11200000531971455, 0.9760000463575125, 0.3040000144392252, 0.0, 0.0, 0.0, 0.0, 0.0, 1.7151028174088535E9, 0.0, 2024-05-07 12:26:57.408
74.0, -665.1711263190955, -663.826632285025, -89.34433999145404, -351.6010844842531, 0.11200000531971455, 0.9760000463575125, 0.3040000144392252, 0.0, 0.0, 0.0, 0.0, 0.0, 1.7151028174088535E9, 0.0, 2024-05-07 12:26:57.408
75.0, -662.1418073549867, -650.8454395388253, -82.687318070326, -335.2203226783313, 0.11200000531971455, 0.9760000463575125, 0.3040000144392252, 0.0, 0.0, 0.0, 0.0, 0.0, 1.71510281740941E9, 0.0, 2024-05-07 12:26:57.409
75.0, -637.2527731498703, -627.9123730105348, -71.02631000848487, -311.70383175695315, 0.11200000531971455, 0.9760000463575125, 0.3040000144392252, 0.0, 0.0, 0.0, 0.0, 0.0, 1.71510281740941E9, 0.0, 2024-05-07 12:26:57.409
76.0, -635.7530732676387, -636.4056858099066, -69.28351662913337, -325.88927228888497, 0.11200000531971455, 0.9760000463575125, 0.3040000144392252, 0.0, 0.0, 0.0, 0.0, 0.0, 1.7151028174232366E9, 0.0, 2024-05-07 12:26:57.423
76.0, -642.4774133879691, -629.1428000959568, -67.91471324535087, -317.71011108579114, 0.11200000531971455, 0.9760000463575125, 0.3040000144392252, 0.0, 0.0, 0.0, 0.0, 0.0, 1.7151028174232366E9, 0.0, 2024-05-07 12:26:57.423
77.0, -637.4098489480093, -626.7829232239164, -64.12619459023699, -322.4597840295173, 0.11200000531971455, 0.9760000463575125, 0.3040000144392252, 0.0, 0.0, 0.0, 0.0, 0.0, 1.7151028174388125E9, 0.0, 2024-05-07 12:26:57.438
77.0, -639.4144353242591, -625.9713649335317, -61.81867631757632, -318.3533738781698, 0.11200000531971455, 0.9760000463575125, 0.3040000144392252, 0.0, 0.0, 0.0, 0.0, 0.0, 1.7151028174388125E9, 0.0, 2024-05-07 12:26:57.438
78.0, -638.4158820360899, -631.0314495735802, -76.21729114698246, -316.30390870245174, 0.11200000531971455, 0.9760000463575125, 0.3040000144392252, 0.0, 0.0, 0.0, 0.0, 0.0, 1.7151028174396412E9, 0.0, 2024-05-07 12:26:57.439
78.0, -625.4421690898016, -629.0455626971088, -73.50960357906297, -324.9056786005385, 0.11200000531971455, 0.9760000463575125, 0.3040000144392252, 0.0, 0.0, 0.0, 0.0, 0.0, 1.7151028174396412E9, 0.0, 2024-05-07 12:26:57.439
79.0, -623.0897720176727, -629.3185753938742, -65.65955357206985, -325.26844889624044, 0.11200000531971455, 0.9760000463575125, 0.3040000144392252, 0.0, 0.0, 0.0, 0.0, 0.0, 1.7151028174532063E9, 0.0, 2024-05-07 12:26:57.453
79.0, -633.6699489923194, -641.4956896496005, -81.81218148069456, -344.76454736525193, 0.11200000531971455, 0.9760000463575125, 0.3040000144392252, 0.0, 0.0, 0.0, 0.0, 0.0, 1.7151028174532063E9, 0.0, 2024-05-07 12:26:57.453
80.0, -632.0804915111512, -641.9781367438845, -72.87008068664, -345.8416385524906, 0.11200000531971455, 0.9760000463575125, 0.288000013679266, 0.0, 0.0, 0.0, 0.0, 0.0, 1.715102817468707E9, 0.0, 2024-05-07 12:26:57.468
80.0, -624.8512648968026, -639.416305274237, -65.98118496825919, -338.38053814088926, 0.11200000531971455, 0.9760000463575125, 0.288000013679266, 0.0, 0.0, 0.0, 0.0, 0.0, 1.715102817468707E9, 0.0, 2024-05-07 12:26:57.468
81.0, -637.1293564513326, -647.1092794830911, -76.1312734480016, -362.58891055407, 0.11200000531971455, 1.008000047877431, 0.288000013679266, 0.0, 0.0, 0.0, 0.0, 0.0, 1.7151028174694111E9, 0.0, 2024-05-07 12:26:57.469
81.0, -651.3334964830428, -655.1837234874256, -86.46087712561712, -375.99271199526265, 0.11200000531971455, 1.008000047877431, 0.288000013679266, 0.0, 0.0, 0.0, 0.0, 0.0, 1.7151028174694111E9, 0.0, 2024-05-07 12:26:57.469
82.0, -642.6270093861967, -643.7284099231474, -87.56788751250133, -372.02467814227566, 0.0800000037997961, 1.008000047877431, 0.288000013679266, 0.0, 0.0, 0.0, 0.0, 0.0, 1.7151028174830737E9, 0.0, 2024-05-07 12:26:57.483
82.0, -648.5472710160539, -636.4543045093305, -96.93633690150455, -373.65901442291215, 0.0800000037997961, 1.008000047877431, 0.288000013679266, 0.0, 0.0, 0.0, 0.0, 0.0, 1.7151028174830737E9, 0.0, 2024-05-07 12:26:57.483
83.0, -667.0448161968961, -646.230402993504, -113.68360890308395, -377.9337200722657, 0.0800000037997961, 1.008000047877431, 0.288000013679266, 0.0, 0.0, 0.0, 0.0, 0.0, 1.715102817498744E9, 0.0, 2024-05-07 12:26:57.498
83.0, -670.4219458568841, -654.8994910907932, -123.71028068428859, -407.5911267208867, 0.0800000037997961, 1.008000047877431, 0.288000013679266, 0.0, 0.0, 0.0, 0.0, 0.0, 1.715102817498744E9, 0.0, 2024-05-07 12:26:57.498
84.0, -651.3297565830871, -654.3497257973067, -113.64620990352705, -387.1301340633072, 0.0800000037997961, 1.008000047877431, 0.288000013679266, 0.0, 0.0, 0.0, 0.0, 0.0, 1.71510281749953E9, 0.0, 2024-05-07 12:26:57.499
84.0, -677.7222305703908, -666.2126884567551, -139.42908019805327, -407.81926061818376, 0.0800000037997961, 1.008000047877431, 0.288000013679266, 0.0, 0.0, 0.0, 0.0, 0.0, 1.71510281749953E9, 0.0, 2024-05-07 12:26:57.499
85.0, -678.5337888607755, -666.3510647551157, -140.70064618298784, -404.7263633548282, 0.0800000037997961, 1.008000047877431, 0.288000013679266, 0.0, 0.0, 0.0, 0.0, 0.0, 1.7151028175132773E9, 0.0, 2024-05-07 12:26:57.513
85.0, -650.8959281882271, -651.0735734361224, -119.06906483927742, -386.84964156663045, 0.0800000037997961, 1.008000047877431, 0.288000013679266, 0.0, 0.0, 0.0, 0.0, 0.0, 1.7151028175132773E9, 0.0, 2024-05-07 12:26:57.513
86.0, -663.0655626440421, -656.1972363754176, -122.54343189811334, -372.5370444362052, 0.0800000037997961, 1.008000047877431, 0.288000013679266, 0.0, 0.0, 0.0, 0.0, 0.0, 1.7151028175289779E9, 0.0, 2024-05-07 12:26:57.528
86.0, -657.5118112098426, -652.7116496167146, -114.65598289156333, -369.6760209701024, 0.0800000037997961, 1.008000047877431, 0.288000013679266, 0.0, 0.0, 0.0, 0.0, 0.0, 1.7151028175289779E9, 0.0, 2024-05-07 12:26:57.528
87.0, -634.1037773871794, -642.6587985358201, -96.18835691036656, -361.27620566962287, 0.0800000037997961, 1.008000047877431, 0.288000013679266, 0.0, 0.0, 0.0, 0.0, 0.0, 1.7151028175295498E9, 0.0, 2024-05-07 12:26:57.529
87.0, -635.8166515668854, -643.4591371263377, -97.39260469609872, -362.06532456027344, 0.0800000037997961, 1.008000047877431, 0.288000013679266, 0.0, 0.0, 0.0, 0.0, 0.0, 1.7151028175295498E9, 0.0, 2024-05-07 12:26:57.529
88.0, -633.7858858909458, -647.3822921798564, -97.9535896894522, -369.5264249718748, 0.0800000037997961, 1.008000047877431, 0.288000013679266, 0.0, 0.0, 0.0, 0.0, 0.0, 1.7151028175433402E9, 0.0, 2024-05-07 12:26:57.543
88.0, -628.0413995590061, -642.6550586358644, -90.34663317957893, -369.73585936939344, 0.0800000037997961, 1.008000047877431, 0.288000013679266, 0.0, 0.0, 0.0, 0.0, 0.0, 1.7151028175433402E9, 0.0, 2024-05-07 12:26:57.543
89.0, -610.1945969704539, -624.628740849439, -68.23260474158451, -348.5493261204101, 0.0800000037997961, 1.008000047877431, 0.288000013679266, 0.0, 0.0, 0.0, 0.0, 0.0, 1.7151028175589597E9, 0.0, 2024-05-07 12:26:57.558
89.0, -625.4234695900232, -642.8495334335603, -82.36568667413667, -361.31734456913546, 0.0800000037997961, 1.008000047877431, 0.288000013679266, 0.0, 0.0, 0.0, 0.0, 0.0, 1.7151028175589597E9, 0.0, 2024-05-07 12:26:57.558
90.0, -620.6663168463856, -633.6344199427404, -77.52251623151824, -351.64596328372136, 0.0800000037997961, 1.008000047877431, 0.3040000144392252, 0.0, 0.0, 0.0, 0.0, 0.0, 1.715102817559433E9, 0.0, 2024-05-07 12:26:57.559
90.0, -621.3694180380553, -633.6605992424302, -85.48476323718205, -337.82703294744715, 0.0800000037997961, 1.008000047877431, 0.3040000144392252, 0.0, 0.0, 0.0, 0.0, 0.0, 1.715102817559433E9, 0.0, 2024-05-07 12:26:57.559
91.0, -619.611665058881, -650.3368131448515, -87.69504411099479, -346.71303524216637, 0.0800000037997961, 0.9760000463575125, 0.3040000144392252, 0.0, 0.0, 0.0, 0.0, 0.0, 1.7151028175730944E9, 0.0, 2024-05-07 12:26:57.573
91.0, -628.512626953423, -650.2732348456047, -75.24491715850309, -332.9913423047401, 0.0800000037997961, 0.9760000463575125, 0.3040000144392252, 0.0, 0.0, 0.0, 0.0, 0.0, 1.7151028175730944E9, 0.0, 2024-05-07 12:26:57.573
92.0, -618.8188062682748, -649.3980982559733, -74.19400527095422, -322.2765289316885, 0.11200000531971455, 0.9760000463575125, 0.3040000144392252, 0.0, 0.0, 0.0, 0.0, 0.0, 1.715102817588993E9, 0.0, 2024-05-07 12:26:57.588
92.0, -625.8610378848389, -653.8635388030671, -70.46906491508707, -328.16313146194443, 0.11200000531971455, 0.9760000463575125, 0.3040000144392252, 0.0, 0.0, 0.0, 0.0, 0.0, 1.715102817588993E9, 0.0, 2024-05-07 12:26:57.588
93.0, -619.3872710615396, -652.5246546189301, -68.36724113998935, -314.99494371796027, 0.11200000531971455, 0.9760000463575125, 0.3040000144392252, 0.0, 0.0, 0.0, 0.0, 0.0, 1.7151028175895028E9, 0.0, 2024-05-07 12:26:57.589
93.0, -607.49064930249, -644.3791525154375, -53.108449320774525, -301.1311345822178, 0.11200000531971455, 0.9760000463575125, 0.3040000144392252, 0.0, 0.0, 0.0, 0.0, 0.0, 1.7151028175895028E9, 0.0, 2024-05-07 12:26:57.589
94.0, -629.6046777404845, -646.8437465862371, -70.8692342103459, -325.66861819149926, 0.11200000531971455, 0.9760000463575125, 0.3040000144392252, 0.0, 0.0, 0.0, 0.0, 0.0, 1.7151028176032495E9, 0.0, 2024-05-07 12:26:57.603
94.0, -645.4842929523438, -660.1652702284046, -99.08677937602624, -334.9173907819204, 0.11200000531971455, 0.9760000463575125, 0.3040000144392252, 0.0, 0.0, 0.0, 0.0, 0.0, 1.7151028176032495E9, 0.0, 2024-05-07 12:26:57.603
95.0, -650.8996680881828, -655.2921805861406, -91.79397446243092, -333.6869636964984, 0.11200000531971455, 0.9760000463575125, 0.3040000144392252, 0.0, 0.0, 0.0, 0.0, 0.0, 1.7151028176188023E9, 0.0, 2024-05-07 12:26:57.618
95.0, -635.8054318670183, -646.4286176911555, -76.8306347397156, -323.26760241994634, 0.11200000531971455, 0.9760000463575125, 0.3040000144392252, 0.0, 0.0, 0.0, 0.0, 0.0, 1.7151028176188023E9, 0.0, 2024-05-07 12:26:57.618
96.0, -646.2846315428615, -652.9622229137458, -95.15614452259615, -334.45738308737054, 0.11200000531971455, 0.9760000463575125, 0.3040000144392252, 0.0, 0.0, 0.0, 0.0, 0.0, 1.7151028176194897E9, 0.0, 2024-05-07 12:26:57.619
96.0, -646.7670786371455, -642.0865938425995, -84.94247774360701, -320.18592485645786, 0.11200000531971455, 0.9760000463575125, 0.3040000144392252, 0.0, 0.0, 0.0, 0.0, 0.0, 1.7151028176194897E9, 0.0, 2024-05-07 12:26:57.619
97.0, -632.6115573048592, -645.3066477044486, -78.35651392163709, -329.1729044499807, 0.11200000531971455, 0.9760000463575125, 0.3040000144392252, 0.0, 0.0, 0.0, 0.0, 0.0, 1.7151028176331398E9, 0.0, 2024-05-07 12:26:57.633
97.0, -641.5835772985592, -642.0753741427325, -86.1317659295164, -327.9536970644258, 0.11200000531971455, 0.9760000463575125, 0.3040000144392252, 0.0, 0.0, 0.0, 0.0, 0.0, 1.7151028176331398E9, 0.0, 2024-05-07 12:26:57.633
98.0, -636.0560051640496, -646.2827615928836, -90.29801448015496, -332.44905681116506, 0.11200000531971455, 0.9760000463575125, 0.3040000144392252, 0.0, 0.0, 0.0, 0.0, 0.0, 1.715102817648694E9, 0.0, 2024-05-07 12:26:57.648
98.0, -631.0146200237796, -646.1668246942572, -88.80579439783469, -337.2062095548026, 0.11200000531971455, 0.9760000463575125, 0.3040000144392252, 0.0, 0.0, 0.0, 0.0, 0.0, 1.715102817648694E9, 0.0, 2024-05-07 12:26:57.648
99.0, -610.2619151696563, -630.9753510742448, -58.24333195993677, -331.5140818222426, 0.11200000531971455, 0.9760000463575125, 0.3040000144392252, 0.0, 0.0, 0.0, 0.0, 0.0, 1.7151028176494267E9, 0.0, 2024-05-07 12:26:57.649
99.0, -642.3689562892541, -653.8186600035988, -88.17749120527878, -347.76394712971523, 0.11200000531971455, 0.9760000463575125, 0.3040000144392252, 0.0, 0.0, 0.0, 0.0, 0.0, 1.7151028176494267E9, 0.0, 2024-05-07 12:26:57.649
100.0, -643.360029777512, -648.4893025667407, -88.3944054027088, -348.35859122266993, 0.11200000531971455, 0.9760000463575125, 0.288000013679266, 0.0, 0.0, 0.0, 0.0, 0.0, 1.7151028176638913E9, 0.0, 2024-05-07 12:26:57.663
100.0, -625.2776134917513, -638.9039389803074, -72.53722959058359, -340.1906497194432, 0.11200000531971455, 0.9760000463575125, 0.288000013679266, 0.0, 0.0, 0.0, 0.0, 0.0, 1.7151028176638913E9, 0.0, 2024-05-07 12:26:57.663
0.0, -634.3992294836789, -641.9257781445049, -76.27899949625134, -346.69059584243223, 0.11200000531971455, 0.9760000463575125, 0.288000013679266, 0.0, 0.0, 0.0, 0.0, 0.0, 1.7151028176645052E9, 0.0, 2024-05-07 12:26:57.664
1.0, -637.2752125496045, -647.2962744808756, -86.35802987683564, -346.3689644462429, 0.11200000531971455, 1.008000047877431, 0.288000013679266, 0.0, 0.0, 0.0, 0.0, 0.0, 1.7151028176945724E9, 0.0, 2024-05-07 12:26:57.694
1.0, -630.6294103283435, -637.5014764969237, -76.25282019656152, -341.1742434077896, 0.11200000531971455, 1.008000047877431, 0.288000013679266, 0.0, 0.0, 0.0, 0.0, 0.0, 1.7151028176945724E9, 0.0, 2024-05-07 12:26:57.694
2.0, -629.2830463442951, -636.0915342136286, -73.95278172381222, -348.5231468207203, 0.09600000455975533, 1.008000047877431, 0.288000013679266, 0.0, 0.0, 0.0, 0.0, 0.0, 1.7151028176956768E9, 0.0, 2024-05-07 12:26:57.695
2.0, -627.8282252615318, -641.0768208545633, -83.0781376156956, -352.98858736781403, 0.09600000455975533, 1.008000047877431, 0.288000013679266, 0.0, 0.0, 0.0, 0.0, 0.0, 1.7151028176956768E9, 0.0, 2024-05-07 12:26:57.695
3.0, -641.1422691037878, -641.2638158523478, -83.5568448100239, -346.6307574431412, 0.09600000455975533, 1.008000047877431, 0.288000013679266, 0.0, 0.0, 0.0, 0.0, 0.0, 1.7151028176959896E9, 0.0, 2024-05-07 12:26:57.695
3.0, -632.6601760042831, -629.2512571946718, -71.72380135022104, -340.60203871456906, 0.09600000455975533, 1.008000047877431, 0.288000013679266, 0.0, 0.0, 0.0, 0.0, 0.0, 1.7151028176959896E9, 0.0, 2024-05-07 12:26:57.695
4.0, -654.6732271434739, -654.9069708907045, -88.7814850481227, -366.7925581042655, 0.09600000455975533, 1.008000047877431, 0.288000013679266, 0.0, 0.0, 0.0, 0.0, 0.0, 1.7151028177083712E9, 0.0, 2024-05-07 12:26:57.708
4.0, -648.7978443130851, -647.1242390829138, -85.01166589278728, -362.58517065411434, 0.09600000455975533, 1.008000047877431, 0.288000013679266, 0.0, 0.0, 0.0, 0.0, 0.0, 1.7151028177083712E9, 0.0, 2024-05-07 12:26:57.708
5.0, -648.726786213927, -641.8285407456569, -71.23387445602566, -346.35774474637583, 0.09600000455975533, 1.008000047877431, 0.288000013679266, 0.0, 0.0, 0.0, 0.0, 0.0, 1.715102817723762E9, 0.0, 2024-05-07 12:26:57.723
5.0, -654.7966438420117, -648.1190524711274, -79.93288175296038, -365.54343151906505, 0.09600000455975533, 1.008000047877431, 0.288000013679266, 0.0, 0.0, 0.0, 0.0, 0.0, 1.715102817723762E9, 0.0, 2024-05-07 12:26:57.723
6.0, -658.9554125927389, -647.5169285782613, -85.45297408755869, -364.892688926775, 0.09600000455975533, 1.008000047877431, 0.288000013679266, 0.0, 0.0, 0.0, 0.0, 0.0, 1.7151028177246213E9, 0.0, 2024-05-07 12:26:57.724
6.0, -641.6321959979832, -642.6213995362632, -72.52040004078299, -357.73078051162884, 0.09600000455975533, 1.008000047877431, 0.288000013679266, 0.0, 0.0, 0.0, 0.0, 0.0, 1.7151028177246213E9, 0.0, 2024-05-07 12:26:57.724
7.0, -637.787578843534, -646.0546276955865, -61.94022306613624, -351.7394607826136, 0.09600000455975533, 1.008000047877431, 0.288000013679266, 0.0, 0.0, 0.0, 0.0, 0.0, 1.7151028177383437E9, 0.0, 2024-05-07 12:26:57.738
7.0, -661.18439296633, -649.353219456505, -79.59629075694829, -364.57479743054137, 0.09600000455975533, 1.008000047877431, 0.288000013679266, 0.0, 0.0, 0.0, 0.0, 0.0, 1.7151028177383437E9, 0.0, 2024-05-07 12:26:57.738
8.0, -652.1936734728515, -645.9910493963398, -78.24244697298855, -357.921515409369, 0.09600000455975533, 1.008000047877431, 0.288000013679266, 0.0, 0.0, 0.0, 0.0, 0.0, 1.7151028177540119E9, 0.0, 2024-05-07 12:26:57.754
8.0, -647.7095334259793, -639.476143673528, -71.93697564769536, -348.45956852147356, 0.09600000455975533, 1.008000047877431, 0.288000013679266, 0.0, 0.0, 0.0, 0.0, 0.0, 1.7151028177540119E9, 0.0, 2024-05-07 12:26:57.754
9.0, -672.172219036147, -662.0800990057178, -82.07958432752639, -360.1579755828716, 0.09600000455975533, 1.008000047877431, 0.288000013679266, 0.0, 0.0, 0.0, 0.0, 0.0, 1.7151028177546337E9, 0.0, 2024-05-07 12:26:57.754
9.0, -657.964339104481, -656.2383752749301, -74.92141581233591, -349.8059325055219, 0.09600000455975533, 1.008000047877431, 0.288000013679266, 0.0, 0.0, 0.0, 0.0, 0.0, 1.7151028177546337E9, 0.0, 2024-05-07 12:26:57.754
10.0, -653.0426307627931, -646.8998450855725, -71.24509415589273, -338.8816847349517, 0.09600000455975533, 1.008000047877431, 0.288000013679266, 0.0, 0.0, 0.0, 0.0, 0.0, 1.7151028177683432E9, 0.0, 2024-05-07 12:26:57.768
10.0, -671.8917265394703, -648.7959743631072, -86.47022687550634, -350.2921194997616, 0.09600000455975533, 1.008000047877431, 0.288000013679266, 0.0, 0.0, 0.0, 0.0, 0.0, 1.7151028177683432E9, 0.0, 2024-05-07 12:26:57.768
11.0, -667.8451547874138, -654.7536349925213, -88.47107335180044, -350.6324503957294, 0.09600000455975533, 1.008000047877431, 0.288000013679266, 0.0, 0.0, 0.0, 0.0, 0.0, 1.7151028177836013E9, 0.0, 2024-05-07 12:26:57.783
11.0, -659.834289082326, -646.6492717885412, -76.63802989199758, -330.2125966376625, 0.09600000455975533, 1.008000047877431, 0.288000013679266, 0.0, 0.0, 0.0, 0.0, 0.0, 1.7151028177836013E9, 0.0, 2024-05-07 12:26:57.783
12.0, -674.1880251122639, -649.8880251501687, -87.26682556606829, -331.6187990210019, 0.09600000455975533, 1.008000047877431, 0.288000013679266, 0.0, 0.0, 0.0, 0.0, 0.0, 1.7151028177989388E9, 0.0, 2024-05-07 12:26:57.798
12.0, -680.8151278337464, -644.1285792184062, -85.72972668427974, -337.2062095548026, 0.09600000455975533, 1.008000047877431, 0.288000013679266, 0.0, 0.0, 0.0, 0.0, 0.0, 1.7151028177989388E9, 0.0, 2024-05-07 12:26:57.798
13.0, -687.1841774582863, -652.5096950191073, -87.17332806717604, -338.0289875450544, 0.09600000455975533, 1.008000047877431, 0.288000013679266, 0.0, 0.0, 0.0, 0.0, 0.0, 1.715102817799456E9, 0.0, 2024-05-07 12:26:57.799
13.0, -663.6190678374842, -631.9664245625027, -66.63379751052707, -323.6976909148507, 0.09600000455975533, 1.008000047877431, 0.288000013679266, 0.0, 0.0, 0.0, 0.0, 0.0, 1.715102817799456E9, 0.0, 2024-05-07 12:26:57.799
14.0, -666.8466014992446, -640.8112879577093, -87.20324726682156, -339.5062480275519, 0.09600000455975533, 1.008000047877431, 0.288000013679266, 0.0, 0.0, 0.0, 0.0, 0.0, 1.7151028178138027E9, 0.0, 2024-05-07 12:26:57.813
14.0, -659.894127481617, -632.1421998604201, -75.37768360693008, -326.1024465863593, 0.09600000455975533, 1.008000047877431, 0.288000013679266, 0.0, 0.0, 0.0, 0.0, 0.0, 1.7151028178138027E9, 0.0, 2024-05-07 12:26:57.813
15.0, -640.0315188169479, -621.3712879880331, -60.567679782398045, -321.6444858391769, 0.09600000455975533, 1.008000047877431, 0.288000013679266, 0.0, 0.0, 0.0, 0.0, 0.0, 1.7151028178144987E9, 0.0, 2024-05-07 12:26:57.814
15.0, -648.7529655136168, -630.5003837798722, -66.28224691469222, -337.68491674913093, 0.09600000455975533, 1.008000047877431, 0.288000013679266, 0.0, 0.0, 0.0, 0.0, 0.0, 1.7151028178144987E9, 0.0, 2024-05-07 12:26:57.814
16.0, -639.9417612180114, -629.2512571946718, -71.22265475615859, -340.49358161585405, 0.09600000455975533, 1.008000047877431, 0.288000013679266, 0.0, 0.0, 0.0, 0.0, 0.0, 1.715102817828303E9, 0.0, 2024-05-07 12:26:57.828
16.0, -626.6052779760212, -627.1269940198399, -58.6565909050405, -330.29861433664337, 0.09600000455975533, 1.008000047877431, 0.288000013679266, 0.0, 0.0, 0.0, 0.0, 0.0, 1.715102817828303E9, 0.0, 2024-05-07 12:26:57.828
17.0, -622.869117920287, -635.3547739223577, -60.930450078099966, -332.9576832051389, 0.09600000455975533, 1.008000047877431, 0.288000013679266, 0.0, 0.0, 0.0, 0.0, 0.0, 1.7151028178440065E9, 0.0, 2024-05-07 12:26:57.844
17.0, -634.724600779824, -639.9324114681222, -76.48469399381429, -342.75622108904645, 0.09600000455975533, 1.008000047877431, 0.288000013679266, 0.0, 0.0, 0.0, 0.0, 0.0, 1.7151028178440065E9, 0.0, 2024-05-07 12:26:57.844
18.0, -631.2277943212539, -634.4497181330808, -80.67712184414268, -346.6008382434957, 0.09600000455975533, 1.008000047877431, 0.288000013679266, 0.0, 0.0, 0.0, 0.0, 0.0, 1.7151028178445318E9, 0.0, 2024-05-07 12:26:57.844
18.0, -638.3597835367545, -631.7308108652942, -75.94240850023925, -344.1923426720314, 0.09600000455975533, 1.008000047877431, 0.288000013679266, 0.0, 0.0, 0.0, 0.0, 0.0, 1.7151028178445318E9, 0.0, 2024-05-07 12:26:57.844
19.0, -642.514812387526, -644.2108570174314, -90.24004603084177, -351.2944126878865, 0.09600000455975533, 1.008000047877431, 0.288000013679266, 0.0, 0.0, 0.0, 0.0, 0.0, 1.7151028178580396E9, 0.0, 2024-05-07 12:26:57.858
19.0, -635.8989293659106, -633.4062860454433, -79.01286636386067, -341.05456660920754, 0.09600000455975533, 1.008000047877431, 0.288000013679266, 0.0, 0.0, 0.0, 0.0, 0.0, 1.7151028178580396E9, 0.0, 2024-05-07 12:26:57.858
20.0, -619.3386523621157, -622.373581176158, -55.18970364611596, -329.7039702436887, 0.09600000455975533, 1.008000047877431, 0.3040000144392252, 0.0, 0.0, 0.0, 0.0, 0.0, 1.7151028178901656E9, 0.0, 2024-05-07 12:26:57.890
20.0, -630.3563976315781, -622.4072402757592, -67.75950739718974, -344.00908757420257, 0.09600000455975533, 1.008000047877431, 0.3040000144392252, 0.0, 0.0, 0.0, 0.0, 0.0, 1.7151028178901656E9, 0.0, 2024-05-07 12:26:57.890
21.0, -636.3701567603275, -628.9483252982609, -60.48540198337287, -333.59720609756187, 0.09600000455975533, 0.9600000455975533, 0.3040000144392252, 0.0, 0.0, 0.0, 0.0, 0.0, 1.715102817890853E9, 0.0, 2024-05-07 12:26:57.890
21.0, -631.6840621158481, -617.5752895330079, -63.04349355306476, -330.64268513256684, 0.09600000455975533, 0.9600000455975533, 0.3040000144392252, 0.0, 0.0, 0.0, 0.0, 0.0, 1.715102817890853E9, 0.0, 2024-05-07 12:26:57.890
22.0, -628.8342583496124, -617.9193603289314, -55.80678713880479, -333.67574399663135, 0.09600000455975533, 0.9600000455975533, 0.3040000144392252, 0.0, 0.0, 0.0, 0.0, 0.0, 1.7151028178916185E9, 0.0, 2024-05-07 12:26:57.891
22.0, -641.4190217005089, -626.6520267254673, -62.44884946011007, -337.5914192502387, 0.09600000455975533, 0.9600000455975533, 0.3040000144392252, 0.0, 0.0, 0.0, 0.0, 0.0, 1.7151028178916185E9, 0.0, 2024-05-07 12:26:57.891
23.0, -640.2858320139349, -623.8994603580795, -67.53885329980403, -339.93633652245626, 0.09600000455975533, 0.9600000455975533, 0.3040000144392252, 0.0, 0.0, 0.0, 0.0, 0.0, 1.7151028178923886E9, 0.0, 2024-05-07 12:26:57.892
23.0, -638.6402760334313, -617.4556127344258, -51.16183139383793, -325.4367443942465, 0.09600000455975533, 0.9600000455975533, 0.3040000144392252, 0.0, 0.0, 0.0, 0.0, 0.0, 1.7151028178923886E9, 0.0, 2024-05-07 12:26:57.892
24.0, -654.5984291443601, -633.6007608431391, -73.4441553298384, -338.41793714044616, 0.09600000455975533, 0.9600000455975533, 0.3040000144392252, 0.0, 0.0, 0.0, 0.0, 0.0, 1.715102817903258E9, 0.0, 2024-05-07 12:26:57.903
24.0, -657.3659551115707, -636.267309511546, -70.26150046754628, -330.8371599302627, 0.09600000455975533, 0.9600000455975533, 0.3040000144392252, 0.0, 0.0, 0.0, 0.0, 0.0, 1.715102817903258E9, 0.0, 2024-05-07 12:26:57.903
25.0, -635.0761513756588, -616.8908878411166, -53.96675636060536, -331.0578140276484, 0.09600000455975533, 0.9600000455975533, 0.3040000144392252, 0.0, 0.0, 0.0, 0.0, 0.0, 1.7151028179182875E9, 0.0, 2024-05-07 12:26:57.918
25.0, -646.531464939937, -638.5224691848271, -72.79715263750404, -333.05492060398683, 0.09600000455975533, 0.9600000455975533, 0.3040000144392252, 0.0, 0.0, 0.0, 0.0, 0.0, 1.7151028179182875E9, 0.0, 2024-05-07 12:26:57.918
26.0, -639.7697258200496, -640.5756742605008, -64.2888802383095, -332.763208407443, 0.09600000455975533, 0.9600000455975533, 0.3040000144392252, 0.0, 0.0, 0.0, 0.0, 0.0, 1.7151028179339776E9, 0.0, 2024-05-07 12:26:57.933
26.0, -643.5694641750306, -634.9620844270103, -74.26693332009017, -337.41190405236557, 0.09600000455975533, 0.9600000455975533, 0.3040000144392252, 0.0, 0.0, 0.0, 0.0, 0.0, 1.7151028179339776E9, 0.0, 2024-05-07 12:26:57.933
27.0, -633.9691409887746, -635.1303799250163, -70.98704105895013, -339.12477823207155, 0.09600000455975533, 0.9600000455975533, 0.3040000144392252, 0.0, 0.0, 0.0, 0.0, 0.0, 1.715102817934582E9, 0.0, 2024-05-07 12:26:57.934
27.0, -635.9924268648028, -638.0587215903215, -73.13374363351613, -341.5594531032257, 0.09600000455975533, 0.9600000455975533, 0.3040000144392252, 0.0, 0.0, 0.0, 0.0, 0.0, 1.715102817934582E9, 0.0, 2024-05-07 12:26:57.934
28.0, -646.3407300421968, -638.1896180887707, -75.28792600799352, -357.6597224124707, 0.09600000455975533, 0.9600000455975533, 0.3040000144392252, 0.0, 0.0, 0.0, 0.0, 0.0, 1.7151028179483135E9, 0.0, 2024-05-07 12:26:57.948
28.0, -649.7215996021405, -628.0993680083193, -85.62874938547611, -349.80219260556623, 0.09600000455975533, 0.9600000455975533, 0.3040000144392252, 0.0, 0.0, 0.0, 0.0, 0.0, 1.7151028179483135E9, 0.0, 2024-05-07 12:26:57.948
29.0, -663.0506030442193, -645.1794911059551, -100.67062700726092, -369.92285436717793, 0.09600000455975533, 0.9600000455975533, 0.3040000144392252, 0.0, 0.0, 0.0, 0.0, 0.0, 1.7151028179640048E9, 0.0, 2024-05-07 12:26:57.964
29.0, -650.9557665875182, -651.0025153369643, -92.34934960585088, -367.088010200765, 0.09600000455975533, 0.9600000455975533, 0.3040000144392252, 0.0, 0.0, 0.0, 0.0, 0.0, 1.7151028179640048E9, 0.0, 2024-05-07 12:26:57.964
30.0, -631.9570748126134, -632.6583060543053, -77.31121188402176, -355.2661864408292, 0.09600000455975533, 0.9600000455975533, 0.288000013679266, 0.0, 0.0, 0.0, 0.0, 0.0, 1.7151028179645972E9, 0.0, 2024-05-07 12:26:57.964
30.0, -640.8767362069339, -634.9284253274091, -83.49326651077718, -362.77216565189883, 0.09600000455975533, 0.9600000455975533, 0.288000013679266, 0.0, 0.0, 0.0, 0.0, 0.0, 1.7151028179645972E9, 0.0, 2024-05-07 12:26:57.964
31.0, -622.5362668242306, -633.9859705385752, -81.00997294019908, -355.84213103400543, 0.09600000455975533, 0.9920000471174717, 0.288000013679266, 0.0, 0.0, 0.0, 0.0, 0.0, 1.715102817978228E9, 0.0, 2024-05-07 12:26:57.978
31.0, -625.7338812863454, -622.8971671699546, -71.27875325549394, -340.60203871456906, 0.09600000455975533, 0.9920000471174717, 0.288000013679266, 0.0, 0.0, 0.0, 0.0, 0.0, 1.715102817978228E9, 0.0, 2024-05-07 12:26:57.978
32.0, -622.2071556281298, -629.2475172947161, -65.53800682350993, -348.05191942630336, 0.09600000455975533, 0.9920000471174717, 0.288000013679266, 0.0, 0.0, 0.0, 0.0, 0.0, 1.7151028179939947E9, 0.0, 2024-05-07 12:26:57.993
32.0, -615.9989217016846, -631.5438158675097, -75.82647160161287, -352.5136200734414, 0.09600000455975533, 0.9920000471174717, 0.288000013679266, 0.0, 0.0, 0.0, 0.0, 0.0, 1.7151028179939947E9, 0.0, 2024-05-07 12:26:57.993
33.0, -621.1899028401822, -630.780876276549, -69.5883184755221, -355.3634238396771, 0.09600000455975533, 0.9920000471174717, 0.288000013679266, 0.0, 0.0, 0.0, 0.0, 0.0, 1.7151028179945648E9, 0.0, 2024-05-07 12:26:57.994
33.0, -609.0801067836583, -622.1192679791711, -59.64392449334264, -330.15275823837146, 0.09600000455975533, 0.9920000471174717, 0.288000013679266, 0.0, 0.0, 0.0, 0.0, 0.0, 1.7151028179945648E9, 0.0, 2024-05-07 12:26:57.994
34.0, -638.6739351330325, -632.6396065545268, -88.81140424776822, -347.79386632936075, 0.09600000455975533, 0.9920000471174717, 0.288000013679266, 0.0, 0.0, 0.0, 0.0, 0.0, 1.7151028180080452E9, 0.0, 2024-05-07 12:26:58.008
34.0, -642.080983992666, -627.631880513858, -90.16898793168366, -344.78698676498607, 0.09600000455975533, 0.9920000471174717, 0.288000013679266, 0.0, 0.0, 0.0, 0.0, 0.0, 1.7151028180080452E9, 0.0, 2024-05-07 12:26:58.008
35.0, -625.7376211863011, -615.2864707601257, -61.04638697672635, -331.955390017014, 0.09600000455975533, 0.9920000471174717, 0.288000013679266, 0.0, 0.0, 0.0, 0.0, 0.0, 1.7151028180239432E9, 0.0, 2024-05-07 12:26:58.023
35.0, -644.6315957624465, -634.217844335828, -80.1497959503904, -346.24554774770513, 0.09600000455975533, 0.9920000471174717, 0.288000013679266, 0.0, 0.0, 0.0, 0.0, 0.0, 1.7151028180239432E9, 0.0, 2024-05-07 12:26:58.023
36.0, -649.5570440040901, -622.1865861783735, -83.05195831600577, -342.19523609569296, 0.09600000455975533, 0.9920000471174717, 0.288000013679266, 0.0, 0.0, 0.0, 0.0, 0.0, 1.7151028180245297E9, 0.0, 2024-05-07 12:26:58.024
36.0, -641.5087792994455, -622.9270863696001, -75.27296640817076, -335.2876408775337, 0.09600000455975533, 0.9920000471174717, 0.288000013679266, 0.0, 0.0, 0.0, 0.0, 0.0, 1.7151028180245297E9, 0.0, 2024-05-07 12:26:58.024
37.0, -651.6401682794094, -617.6575673320331, -85.4118351880461, -338.26460124226287, 0.09600000455975533, 0.9920000471174717, 0.288000013679266, 0.0, 0.0, 0.0, 0.0, 0.0, 1.7151028180381808E9, 0.0, 2024-05-07 12:26:58.038
37.0, -656.9695257162675, -639.9735503676347, -93.9313272871077, -357.3418309162371, 0.09600000455975533, 0.9920000471174717, 0.288000013679266, 0.0, 0.0, 0.0, 0.0, 0.0, 1.7151028180381808E9, 0.0, 2024-05-07 12:26:58.038
38.0, -660.2344583775848, -635.6390063189901, -85.04532499238849, -352.9736277679913, 0.09600000455975533, 0.9920000471174717, 0.288000013679266, 0.0, 0.0, 0.0, 0.0, 0.0, 1.7151028180539765E9, 0.0, 2024-05-07 12:26:58.053
38.0, -644.867209459655, -619.1273480146192, -82.99959971662611, -338.70964933698997, 0.09600000455975533, 0.9920000471174717, 0.288000013679266, 0.0, 0.0, 0.0, 0.0, 0.0, 1.7151028180539765E9, 0.0, 2024-05-07 12:26:58.053
39.0, -665.2421844182536, -626.6258474257775, -95.2290725717321, -357.2184142176993, 0.09600000455975533, 0.9920000471174717, 0.288000013679266, 0.0, 0.0, 0.0, 0.0, 0.0, 1.7151028180545604E9, 0.0, 2024-05-07 12:26:58.054
39.0, -656.3786215232685, -638.8067015814595, -92.61862240266055, -353.4485950623639, 0.09600000455975533, 0.9920000471174717, 0.288000013679266, 0.0, 0.0, 0.0, 0.0, 0.0, 1.7151028180545604E9, 0.0, 2024-05-07 12:26:58.054
40.0, -657.9119805051014, -617.8857012293302, -75.61329730413854, -338.8742049350403, 0.09600000455975533, 0.9920000471174717, 0.3200000151991844, 0.0, 0.0, 0.0, 0.0, 0.0, 1.715102818068011E9, 0.0, 2024-05-07 12:26:58.068
40.0, -664.9803914213553, -626.0723422323354, -90.10540963243693, -356.4180756271817, 0.09600000455975533, 0.9920000471174717, 0.3200000151991844, 0.0, 0.0, 0.0, 0.0, 0.0, 1.715102818068011E9, 0.0, 2024-05-07 12:26:58.068
41.0, -667.9835310857743, -635.616566919256, -92.58122340310365, -349.15892981318757, 0.09600000455975533, 0.9760000463575125, 0.3200000151991844, 0.0, 0.0, 0.0, 0.0, 0.0, 1.7151028180840464E9, 0.0, 2024-05-07 12:26:58.084
41.0, -658.3046700004488, -631.0875480729155, -93.10106949694455, -345.94635575124994, 0.09600000455975533, 0.9760000463575125, 0.3200000151991844, 0.0, 0.0, 0.0, 0.0, 0.0, 1.7151028180840464E9, 0.0, 2024-05-07 12:26:58.084
42.0, -655.5857627326623, -625.6983522367664, -80.82297794241458, -345.4339894573204, 0.0800000037997961, 0.9760000463575125, 0.3200000151991844, 0.0, 0.0, 0.0, 0.0, 0.0, 1.715102818084585E9, 0.0, 2024-05-07 12:26:58.084
42.0, -663.7088254364207, -637.4304183977656, -92.86545579973608, -349.75357390614226, 0.0800000037997961, 0.9760000463575125, 0.3200000151991844, 0.0, 0.0, 0.0, 0.0, 0.0, 1.715102818084585E9, 0.0, 2024-05-07 12:26:58.084
43.0, -659.9277865812182, -631.1361667723395, -87.24438616633415, -346.12961084907874, 0.0800000037997961, 0.9760000463575125, 0.3200000151991844, 0.0, 0.0, 0.0, 0.0, 0.0, 1.715102818098454E9, 0.0, 2024-05-07 12:26:58.098
43.0, -631.3773903194815, -621.1543737906031, -79.33823766000569, -327.2842549723573, 0.0800000037997961, 0.9760000463575125, 0.3200000151991844, 0.0, 0.0, 0.0, 0.0, 0.0, 1.715102818098454E9, 0.0, 2024-05-07 12:26:58.098
44.0, -661.2704106653109, -634.0233695381321, -94.95979977492243, -349.87699060468003, 0.0800000037997961, 0.9760000463575125, 0.3200000151991844, 0.0, 0.0, 0.0, 0.0, 0.0, 1.7151028181139488E9, 0.0, 2024-05-07 12:26:58.113
44.0, -661.1619535665959, -629.225077894982, -90.99176592193544, -353.09704446652904, 0.0800000037997961, 0.9760000463575125, 0.3200000151991844, 0.0, 0.0, 0.0, 0.0, 0.0, 1.7151028181139488E9, 0.0, 2024-05-07 12:26:58.113
45.0, -644.7363129612058, -616.1242083502002, -76.39493639487773, -339.15843733167276, 0.0800000037997961, 0.9760000463575125, 0.3200000151991844, 0.0, 0.0, 0.0, 0.0, 0.0, 1.7151028181145887E9, 0.0, 2024-05-07 12:26:58.114
45.0, -658.072796203196, -633.6531194425188, -85.56891098618507, -352.71931457100436, 0.0800000037997961, 0.9760000463575125, 0.3200000151991844, 0.0, 0.0, 0.0, 0.0, 0.0, 1.7151028181145887E9, 0.0, 2024-05-07 12:26:58.114
46.0, -653.0127115631476, -628.3499413053505, -83.08561741560698, -354.32373165199533, 0.0800000037997961, 0.9760000463575125, 0.3200000151991844, 0.0, 0.0, 0.0, 0.0, 0.0, 1.71510281812849E9, 0.0, 2024-05-07 12:26:58.128
46.0, -651.475612681359, -629.1353202960454, -85.38939578831196, -345.8079794528894, 0.0800000037997961, 0.9760000463575125, 0.3200000151991844, 0.0, 0.0, 0.0, 0.0, 0.0, 1.71510281812849E9, 0.0, 2024-05-07 12:26:58.128
47.0, -642.0361051931977, -631.599914366845, -85.18370129074901, -341.05456660920754, 0.0800000037997961, 0.9760000463575125, 0.3200000151991844, 0.0, 0.0, 0.0, 0.0, 0.0, 1.7151028181437333E9, 0.0, 2024-05-07 12:26:58.143
47.0, -653.3231232594699, -648.859552662354, -96.2687647594139, -352.39020337490365, 0.0800000037997961, 0.9760000463575125, 0.3200000151991844, 0.0, 0.0, 0.0, 0.0, 0.0, 1.7151028181437333E9, 0.0, 2024-05-07 12:26:58.143
48.0, -653.3306030593812, -640.8636465570889, -82.24787982553244, -342.4345896928571, 0.0800000037997961, 0.9760000463575125, 0.3200000151991844, 0.0, 0.0, 0.0, 0.0, 0.0, 1.7151028181444788E9, 0.0, 2024-05-07 12:26:58.144
48.0, -638.9432079298422, -628.2527039065026, -68.51870708819479, -333.26435500150546, 0.0800000037997961, 0.9760000463575125, 0.3200000151991844, 0.0, 0.0, 0.0, 0.0, 0.0, 1.7151028181444788E9, 0.0, 2024-05-07 12:26:58.144
49.0, -663.3871940402314, -644.046301419381, -90.5616774270311, -345.7444011536427, 0.0800000037997961, 0.9760000463575125, 0.3200000151991844, 0.0, 0.0, 0.0, 0.0, 0.0, 1.7151028181586008E9, 0.0, 2024-05-07 12:26:58.158
49.0, -657.9194603050128, -648.7361359638162, -93.25440539512783, -349.31600561132655, 0.0800000037997961, 0.9760000463575125, 0.3200000151991844, 0.0, 0.0, 0.0, 0.0, 0.0, 1.7151028181586008E9, 0.0, 2024-05-07 12:26:58.158
50.0, -651.8458627769724, -641.6378058479168, -86.01769898086786, -337.6624773493968, 0.0800000037997961, 0.9760000463575125, 0.3200000151991844, 0.0, 0.0, 0.0, 0.0, 0.0, 1.7151028181738727E9, 0.0, 2024-05-07 12:26:58.173
50.0, -665.7134118126705, -659.6865630340762, -90.32232382986695, -346.42880284553394, 0.0800000037997961, 0.9760000463575125, 0.3200000151991844, 0.0, 0.0, 0.0, 0.0, 0.0, 1.7151028181738727E9, 0.0, 2024-05-07 12:26:58.173
51.0, -654.8377827415243, -657.5772594590671, -90.61777592636645, -354.327471551951, 0.0800000037997961, 0.9920000471174717, 0.3200000151991844, 0.0, 0.0, 0.0, 0.0, 0.0, 1.7151028181745448E9, 0.0, 2024-05-07 12:26:58.174
51.0, -656.1953664254397, -651.1782906348817, -82.81260471884161, -339.0312807331793, 0.0800000037997961, 0.9920000471174717, 0.3200000151991844, 0.0, 0.0, 0.0, 0.0, 0.0, 1.7151028181745448E9, 0.0, 2024-05-07 12:26:58.174
52.0, -654.7368054427207, -648.2424691696651, -79.51401295792311, -332.5163750103675, 0.09600000455975533, 0.9920000471174717, 0.3200000151991844, 0.0, 0.0, 0.0, 0.0, 0.0, 1.7151028181882825E9, 0.0, 2024-05-07 12:26:58.188
52.0, -666.5848085023463, -656.7320420690812, -95.75265856552869, -342.894597387407, 0.09600000455975533, 0.9920000471174717, 0.3200000151991844, 0.0, 0.0, 0.0, 0.0, 0.0, 1.7151028181882825E9, 0.0, 2024-05-07 12:26:58.188
53.0, -662.8561282465234, -651.7355357282795, -85.51655238680542, -351.4178293864243, 0.09600000455975533, 0.9920000471174717, 0.3200000151991844, 0.0, 0.0, 0.0, 0.0, 0.0, 1.7151028182037604E9, 0.0, 2024-05-07 12:26:58.203
53.0, -634.24215368554, -627.1606531194411, -74.184655521065, -334.59949928568676, 0.09600000455975533, 0.9920000471174717, 0.3200000151991844, 0.0, 0.0, 0.0, 0.0, 0.0, 1.7151028182037604E9, 0.0, 2024-05-07 12:26:58.203
54.0, -646.5389447398484, -638.8478404809721, -85.03036539256573, -363.13493594760075, 0.09600000455975533, 0.9920000471174717, 0.3200000151991844, 0.0, 0.0, 0.0, 0.0, 0.0, 1.7151028182044554E9, 0.0, 2024-05-07 12:26:58.204
54.0, -652.2684714719653, -640.9945430555381, -92.70090020168573, -364.91886822646484, 0.09600000455975533, 0.9920000471174717, 0.3200000151991844, 0.0, 0.0, 0.0, 0.0, 0.0, 1.7151028182044554E9, 0.0, 2024-05-07 12:26:58.204
55.0, -636.5982906576246, -625.5076173390262, -68.2531741913408, -344.5850321673788, 0.09600000455975533, 0.9920000471174717, 0.3200000151991844, 0.0, 0.0, 0.0, 0.0, 0.0, 1.715102818218171E9, 0.0, 2024-05-07 12:26:58.218
55.0, -641.2058474030346, -636.3944661100395, -77.89837617706507, -350.9578216918744, 0.09600000455975533, 0.9920000471174717, 0.3200000151991844, 0.0, 0.0, 0.0, 0.0, 0.0, 1.715102818218171E9, 0.0, 2024-05-07 12:26:58.218
56.0, -651.6177288796753, -639.1058935779147, -83.77001910749823, -346.8027928411029, 0.09600000455975533, 0.9920000471174717, 0.3200000151991844, 0.0, 0.0, 0.0, 0.0, 0.0, 1.7151028182339487E9, 0.0, 2024-05-07 12:26:58.233
56.0, -644.3174441661686, -643.0365284313448, -73.78448622580618, -346.6195377432741, 0.09600000455975533, 0.9920000471174717, 0.3200000151991844, 0.0, 0.0, 0.0, 0.0, 0.0, 1.7151028182339487E9, 0.0, 2024-05-07 12:26:58.233
57.0, -637.5482252463698, -642.00805594353, -76.9634011881426, -346.09595174947754, 0.09600000455975533, 0.9920000471174717, 0.3200000151991844, 0.0, 0.0, 0.0, 0.0, 0.0, 1.7151028182345402E9, 0.0, 2024-05-07 12:26:58.234
57.0, -651.2175595844164, -638.3915726863779, -65.83345892000943, -342.1129582966678, 0.09600000455975533, 0.9920000471174717, 0.3200000151991844, 0.0, 0.0, 0.0, 0.0, 0.0, 1.7151028182345402E9, 0.0, 2024-05-07 12:26:58.234
58.0, -648.2779982192442, -633.9560513389297, -75.3328048074618, -346.34278514655307, 0.09600000455975533, 0.9920000471174717, 0.3200000151991844, 0.0, 0.0, 0.0, 0.0, 0.0, 1.7151028182482429E9, 0.0, 2024-05-07 12:26:58.248
58.0, -634.0140197882429, -632.9612379507162, -69.56587907578796, -334.2516885898076, 0.09600000455975533, 0.9920000471174717, 0.3200000151991844, 0.0, 0.0, 0.0, 0.0, 0.0, 1.7151028182482429E9, 0.0, 2024-05-07 12:26:58.248
59.0, -653.6522344555706, -638.2307569882832, -79.06896486319602, -347.7078486303799, 0.09600000455975533, 0.9920000471174717, 0.3200000151991844, 0.0, 0.0, 0.0, 0.0, 0.0, 1.715102818263886E9, 0.0, 2024-05-07 12:26:58.263
59.0, -652.2946507716551, -639.4686638736166, -74.12481712177396, -347.71532843029127, 0.09600000455975533, 0.9920000471174717, 0.3200000151991844, 0.0, 0.0, 0.0, 0.0, 0.0, 1.715102818263886E9, 0.0, 2024-05-07 12:26:58.263
60.0, -644.7961513604969, -636.4019459099509, -72.35210454277694, -338.4029775406234, 0.09600000455975533, 0.9920000471174717, 0.3040000144392252, 0.0, 0.0, 0.0, 0.0, 0.0, 1.7151028182645614E9, 0.0, 2024-05-07 12:26:58.264
60.0, -644.9569670585915, -642.6550586358644, -64.61051163449883, -349.52917990880087, 0.09600000455975533, 0.9920000471174717, 0.3040000144392252, 0.0, 0.0, 0.0, 0.0, 0.0, 1.7151028182645614E9, 0.0, 2024-05-07 12:26:58.264
61.0, -645.0729039572179, -644.9663168084808, -72.52787984069437, -349.6301572076045, 0.09600000455975533, 1.008000047877431, 0.3040000144392252, 0.0, 0.0, 0.0, 0.0, 0.0, 1.715102818278222E9, 0.0, 2024-05-07 12:26:58.278
61.0, -640.3830694127828, -628.2751433062367, -62.00380136538297, -343.20126918377355, 0.09600000455975533, 1.008000047877431, 0.3040000144392252, 0.0, 0.0, 0.0, 0.0, 0.0, 1.715102818278222E9, 0.0, 2024-05-07 12:26:58.278
62.0, -634.2084945859388, -621.4049470876344, -48.64113882370293, -333.45134999928996, 0.0800000037997961, 1.008000047877431, 0.3040000144392252, 0.0, 0.0, 0.0, 0.0, 0.0, 1.7151028182937582E9, 0.0, 2024-05-07 12:26:58.293
62.0, -650.7912109894678, -628.8997065988369, -62.935036454349756, -337.90931074647233, 0.0800000037997961, 1.008000047877431, 0.3040000144392252, 0.0, 0.0, 0.0, 0.0, 0.0, 1.7151028182937582E9, 0.0, 2024-05-07 12:26:58.293
63.0, -640.5551048107445, -623.8471017586999, -62.89763745479286, -344.4129967694171, 0.0800000037997961, 1.008000047877431, 0.3040000144392252, 0.0, 0.0, 0.0, 0.0, 0.0, 1.7151028182945404E9, 0.0, 2024-05-07 12:26:58.294
63.0, -626.0592525824904, -614.8750817649998, -44.16073867678642, -329.2402226491831, 0.0800000037997961, 1.008000047877431, 0.3040000144392252, 0.0, 0.0, 0.0, 0.0, 0.0, 1.7151028182945404E9, 0.0, 2024-05-07 12:26:58.294
64.0, -642.9822998819873, -628.5182368033566, -57.46356281917542, -348.72510141832754, 0.0800000037997961, 1.008000047877431, 0.3040000144392252, 0.0, 0.0, 0.0, 0.0, 0.0, 1.715102818308092E9, 0.0, 2024-05-07 12:26:58.308
64.0, -650.2414456959814, -626.981137921568, -73.10008453391492, -351.156036389526, 0.0800000037997961, 1.008000047877431, 0.3040000144392252, 0.0, 0.0, 0.0, 0.0, 0.0, 1.715102818308092E9, 0.0, 2024-05-07 12:26:58.308
65.0, -634.627363380976, -620.226878601592, -52.7662484748289, -343.4032237813808, 0.0800000037997961, 1.008000047877431, 0.3040000144392252, 0.0, 0.0, 0.0, 0.0, 0.0, 1.715102818323877E9, 0.0, 2024-05-07 12:26:58.323
65.0, -655.6530809318647, -627.7440775125287, -73.64984982740134, -349.09535151394084, 0.0800000037997961, 1.008000047877431, 0.3040000144392252, 0.0, 0.0, 0.0, 0.0, 0.0, 1.715102818323877E9, 0.0, 2024-05-07 12:26:58.323
66.0, -663.0169439446181, -639.9922498674132, -79.43547505885363, -355.57659813715145, 0.0800000037997961, 1.008000047877431, 0.3040000144392252, 0.0, 0.0, 0.0, 0.0, 0.0, 1.7151028183246157E9, 0.0, 2024-05-07 12:26:58.324
66.0, -626.0779520822689, -633.1931117479689, -38.59950744267553, -338.15614414354786, 0.0800000037997961, 1.008000047877431, 0.3040000144392252, 0.0, 0.0, 0.0, 0.0, 0.0, 1.7151028183246157E9, 0.0, 2024-05-07 12:26:58.324
67.0, -626.8446315731853, -626.2518574302085, -27.245171177200973, -328.7577755548991, 0.0800000037997961, 1.008000047877431, 0.3040000144392252, 0.0, 0.0, 0.0, 0.0, 0.0, 1.7151028183380513E9, 0.0, 2024-05-07 12:26:58.338
67.0, -623.893850508146, -637.7408300940879, -38.393812945112586, -328.9148513530381, 0.0800000037997961, 1.008000047877431, 0.3040000144392252, 0.0, 0.0, 0.0, 0.0, 0.0, 1.7151028183380513E9, 0.0, 2024-05-07 12:26:58.338
68.0, -627.7983060618863, -637.5089562968351, -36.467764467932284, -331.1064327270724, 0.0800000037997961, 1.008000047877431, 0.3040000144392252, 0.0, 0.0, 0.0, 0.0, 0.0, 1.7151028183539727E9, 0.0, 2024-05-07 12:26:58.353
68.0, -608.60139958933, -623.5292102624662, -15.70383991394192, -303.3825543555431, 0.0800000037997961, 1.008000047877431, 0.3040000144392252, 0.0, 0.0, 0.0, 0.0, 0.0, 1.7151028183539727E9, 0.0, 2024-05-07 12:26:58.353
